*RAS_DATA_START
*RAS_HEADER_START
*DISP_LINE_COLOR "4294901760"
*FILE_COMMENT ""
*FILE_MD5 ""
*FILE_MEMO ""
*FILE_OPERATOR "Administrator"
*FILE_PACKAGE_NAME ""
*FILE_PART_ID "GeneralMeasurement"
*FILE_SAMPLE ""
*FILE_SYSTEM_NAME "SmartLab"
*FILE_TYPE "RAS_RAW"
*FILE_USERGROUP "Administrators"
*FILE_VERSION "1"
*HW_ATTACHMENT_ID "ATT0025"
*HW_ATTACHMENT_NAME "Standard"
*HW_ATTACHMENT_NAME_INTERNAL "Standard"
*HW_COUNTER_ID-0 "CUT0051"
*HW_COUNTER_ID-1 "CMC0020"
*HW_COUNTER_MONOCHRO_ID "CMC0020"
*HW_COUNTER_MONOCHRO_NAME "None"
*HW_COUNTER_MONOCHRO_NAME_INTERNAL "None"
*HW_COUNTER_NAME_INTERNAL "HyPix3000(H)"
*HW_COUNTER_NAME-0 "HyPix3000(H)"
*HW_COUNTER_NAME-1 "None"
*HW_COUNTER_SELECT_NAME "HyPix3000(H)"
*HW_EXTERNAL_CONTROLLER_NAME "None"
*HW_EXTERNAL_CONTROLLER_NAME_INTERNAL "None"
*HW_GONIOMETER_ID "GON0021"
*HW_GONIOMETER_NAME "StandardEnc"
*HW_GONIOMETER_NAME_INTERNAL "StandardEnc"
*HW_GONIOMETER_RADIUS-0 "90.0"
*HW_GONIOMETER_RADIUS-1 "114.0"
*HW_GONIOMETER_RADIUS-2 "190.0"
*HW_GONIOMETER_RADIUS-3 "300.0"
*HW_GONIOMETER_RADIUS-4 "187.0"
*HW_GONIOMETER_RADIUS-5 "300.0"
*HW_GONIOMETER_RADIUS-6 "113.0000"
*HW_GONIOMETER_RADIUS-7 "331.0"
*HW_I_CBO_ID "CBO0021"
*HW_I_CBO_NAME "CBO"
*HW_I_CBO_NAME_INTERNAL "CBO"
*HW_I_MONOCHRO_ID "ISO0021"
*HW_I_MONOCHRO_NAME "IPS_adaptor"
*HW_I_MONOCHRO_NAME_INTERNAL "IPS_adaptor"
*HW_I_OPT_ID-0 "CBO0021"
*HW_I_OPT_ID-1 "ISL0021"
*HW_I_PRIMARY_NAME_INTERNAL "Standard"
*HW_I_SLIT_ID "ISL0021"
*HW_I_SLIT_NAME "Auto"
*HW_I_SLIT_NAME_INTERNAL "Auto"
*HW_R_ATTENUATER_AUTOMODE "0"
*HW_R_ATTENUATER_ID "ATN0020"
*HW_R_ATTENUATER_NAME "No_unit"
*HW_R_ATTENUATOR_NAME_INTERNAL "No_unit"
*HW_R_OPT_ID-0 "RSS0022"
*HW_R_OPT_ID-1 "RCR0022"
*HW_R_OPT_ID-2 "RSO0021"
*HW_R_OPT_ID-3 "RRS0022"
*HW_R_OPT_ID-4 "ATN0020"
*HW_R_ROD_ID "RCR0022"
*HW_R_ROD_NAME "ROD_adaptor"
*HW_R_ROD_NAME_INTERNAL "ROD_adaptor"
*HW_R_RPS_ID "RSO0021"
*HW_R_RPS_NAME "RPS_adaptor"
*HW_R_RPS_NAME_INTERNAL "RPS_adaptor"
*HW_R_RS_ID "RRS0022"
*HW_R_RS_NAME "Virtual"
*HW_R_RS_NAME_INTERNAL "Virtual"
*HW_R_SS_ID "RSS0022"
*HW_R_SS_NAME "Auto_Zr"
*HW_R_SS_NAME_INTERNAL "Auto_Zr"
*HW_ROBOT_NAME "No_unit"
*HW_ROBOT_NAME_INTERNAL "No_unit"
*HW_SAMPLE_CAMERA_NAME "SampleCamera_Std"
*HW_SAMPLE_CAMERA_NAME_INTERNAL "SampleCamera_Std"
*HW_SAMPLE_HOLDER_ID "SMP0021"
*HW_SAMPLE_HOLDER_NAME "Z_ChiPhi"
*HW_SAMPLE_HOLDER_NAME_INTERNAL "Z_ChiPhi"
*HW_SAMPLE_NAME "WaferSample"
*HW_SAMPLE_NAME_INTERNAL "WaferSample"
*HW_SAMPLE_PLATE_NAME "ForWafer"
*HW_SAMPLE_PLATE_NAME_INTERNAL "ForWafer"
*HW_SAMPLE_SPACER_NAME "0-3mm"
*HW_SAMPLE_SPACER_NAME_INTERNAL "0-3mm"
*HW_USERINFO_CATALOG_NO ""
*HW_USERINFO_INSTRUMENT_ID ""
*HW_USERINFO_INSTRUMENT_NAME ""
*HW_USERINFO_MODEL ""
*HW_USERINFO_ORDER_NO ""
*HW_USERINFO_SERIAL_NO ""
*HW_USERINFO_VERIFY_INSTRUMENT_ID "00-07-fe-01-14-97"
*HW_VER_RCD_COUNTER_UNIT "1.0.1"
*HW_VER_RCD_CPU "3.2.2"
*HW_VER_RCD_FPGA "1.2.3"
*HW_VER_RCD_GONIO_UNIT "6.1.1"
*HW_VER_RCD_INCIDENT_UNIT "6.1.1"
*HW_VER_RCD_RECEIVING_UNIT "6.1.1"
*HW_VER_RCD_TYPE "RINC"
*HW_VER_XGC_CPU "3.2.2"
*HW_VER_XGC_CW "1.4.9"
*HW_VER_XGC_HV "1.4.9"
*HW_VER_XGC_RS1 "1.4.9"
*HW_VER_XGC_RS2 "N/A"
*HW_VER_XGC_RT "N/A"
*HW_VER_XGC_TYPE "RINC"
*HW_XG_CURRENT_UNIT "mA"
*HW_XG_FOCUS "0.4mm x 12mm"
*HW_XG_FOCUS_TYPE "LongFine"
*HW_XG_TARGET_ATOMIC_NUMBER "29"
*HW_XG_TARGET_NAME "Cu"
*HW_XG_TYPE "Hermetic"
*HW_XG_VOLTAGE_UNIT "kV"
*HW_XG_WAVE_LENGTH_ALPHA1 "1.540593"
*HW_XG_WAVE_LENGTH_ALPHA2 "1.544414"
*HW_XG_WAVE_LENGTH_BETA "1.392246"
*HW_XG_WAVE_LENGTH_UNIT "Angstrom"
*MEAS_COND_AXIS_NAME_INTERNAL-0 "ThetaS"
*MEAS_COND_AXIS_NAME_INTERNAL-1 "ThetaD"
*MEAS_COND_AXIS_NAME_INTERNAL-10 "CBOType"
*MEAS_COND_AXIS_NAME_INTERNAL-11 "CBO-M"
*MEAS_COND_AXIS_NAME_INTERNAL-12 "CBO"
*MEAS_COND_AXIS_NAME_INTERNAL-13 "IncidentSollerSlit"
*MEAS_COND_AXIS_NAME_INTERNAL-14 "IncidentSlitBox"
*MEAS_COND_AXIS_NAME_INTERNAL-15 "IncidentSlitBox-_Axis"
*MEAS_COND_AXIS_NAME_INTERNAL-16 "SlitDS"
*MEAS_COND_AXIS_NAME_INTERNAL-17 "Zs"
*MEAS_COND_AXIS_NAME_INTERNAL-18 "IncidentAxdSlit"
*MEAS_COND_AXIS_NAME_INTERNAL-19 "LLS"
*MEAS_COND_AXIS_NAME_INTERNAL-2 "TwoTheta"
*MEAS_COND_AXIS_NAME_INTERNAL-20 "DHLSlit"
*MEAS_COND_AXIS_NAME_INTERNAL-21 "Chi"
*MEAS_COND_AXIS_NAME_INTERNAL-22 "Phi"
*MEAS_COND_AXIS_NAME_INTERNAL-23 "Z"
*MEAS_COND_AXIS_NAME_INTERNAL-24 "Alpha"
*MEAS_COND_AXIS_NAME_INTERNAL-25 "Beta"
*MEAS_COND_AXIS_NAME_INTERNAL-26 "ReceivingSlitBox1"
*MEAS_COND_AXIS_NAME_INTERNAL-27 "ReceivingSlitBox1-_Axis"
*MEAS_COND_AXIS_NAME_INTERNAL-28 "SlitSS"
*MEAS_COND_AXIS_NAME_INTERNAL-29 "Zr"
*MEAS_COND_AXIS_NAME_INTERNAL-3 "Omega"
*MEAS_COND_AXIS_NAME_INTERNAL-30 "Filter"
*MEAS_COND_AXIS_NAME_INTERNAL-31 "PSA"
*MEAS_COND_AXIS_NAME_INTERNAL-32 "ReceivingSollerSlit"
*MEAS_COND_AXIS_NAME_INTERNAL-33 "ReceivingSlitBox2"
*MEAS_COND_AXIS_NAME_INTERNAL-34 "ReceivingSlitBox2-_Axis"
*MEAS_COND_AXIS_NAME_INTERNAL-35 "SlitRS"
*MEAS_COND_AXIS_NAME_INTERNAL-36 "ModuleSensorType"
*MEAS_COND_AXIS_NAME_INTERNAL-37 "PHA"
*MEAS_COND_AXIS_NAME_INTERNAL-38 "DetectorBeamStop"
*MEAS_COND_AXIS_NAME_INTERNAL-39 "DetectorFilter"
*MEAS_COND_AXIS_NAME_INTERNAL-4 "TwoThetaTheta"
*MEAS_COND_AXIS_NAME_INTERNAL-40 "DedicatedHolder"
*MEAS_COND_AXIS_NAME_INTERNAL-41 "Target_TargetTime"
*MEAS_COND_AXIS_NAME_INTERNAL-42 "Target_XrayOnTime"
*MEAS_COND_AXIS_NAME_INTERNAL-43 "Target_TMPTime"
*MEAS_COND_AXIS_NAME_INTERNAL-44 "Target_RPTime"
*MEAS_COND_AXIS_NAME_INTERNAL-45 "Target_FilamentTime"
*MEAS_COND_AXIS_NAME_INTERNAL-46 "Target_IG"
*MEAS_COND_AXIS_NAME_INTERNAL-47 "Target_GP"
*MEAS_COND_AXIS_NAME_INTERNAL-48 "Target_FC"
*MEAS_COND_AXIS_NAME_INTERNAL-49 "HVPS_HVPSTime"
*MEAS_COND_AXIS_NAME_INTERNAL-5 "TwoThetaOmega"
*MEAS_COND_AXIS_NAME_INTERNAL-50 "HVPS_Type1Time"
*MEAS_COND_AXIS_NAME_INTERNAL-51 "HVPS_Type2Time"
*MEAS_COND_AXIS_NAME_INTERNAL-52 "HVPS_Type3Time"
*MEAS_COND_AXIS_NAME_INTERNAL-53 "CW_IERTime"
*MEAS_COND_AXIS_NAME_INTERNAL-54 "CW_ECTime"
*MEAS_COND_AXIS_NAME_INTERNAL-55 "CW_Flow1"
*MEAS_COND_AXIS_NAME_INTERNAL-56 "CW_Temperature1"
*MEAS_COND_AXIS_NAME_INTERNAL-57 "CW_Pressure1"
*MEAS_COND_AXIS_NAME_INTERNAL-58 "CW_PressureIn"
*MEAS_COND_AXIS_NAME_INTERNAL-59 "CW_PressureOut"
*MEAS_COND_AXIS_NAME_INTERNAL-6 "OmegaTwoTheta"
*MEAS_COND_AXIS_NAME_INTERNAL-60 "CW_Flow2"
*MEAS_COND_AXIS_NAME_INTERNAL-61 "CW_Temperature2"
*MEAS_COND_AXIS_NAME_INTERNAL-62 "CW_Pressure2"
*MEAS_COND_AXIS_NAME_INTERNAL-63 "RE_EnclosureTemp"
*MEAS_COND_AXIS_NAME_INTERNAL-64 "RE_EnclosureHummidity"
*MEAS_COND_AXIS_NAME_INTERNAL-65 "RE_CabinetTemp"
*MEAS_COND_AXIS_NAME_INTERNAL-66 "RE_RPTemp"
*MEAS_COND_AXIS_NAME_INTERNAL-67 "RE_ShutterAXrayOnTime"
*MEAS_COND_AXIS_NAME_INTERNAL-68 "RE_ShutterATimes"
*MEAS_COND_AXIS_NAME_INTERNAL-69 "RE_ShutterAOpenCloseTime"
*MEAS_COND_AXIS_NAME_INTERNAL-7 "Ts"
*MEAS_COND_AXIS_NAME_INTERNAL-70 "RE_ShutterACloseOpenTime"
*MEAS_COND_AXIS_NAME_INTERNAL-71 "RE_ShutterBXrayOnTime"
*MEAS_COND_AXIS_NAME_INTERNAL-72 "RE_ShutterBTimes"
*MEAS_COND_AXIS_NAME_INTERNAL-73 "RE_ShutterBOpenCloseTime"
*MEAS_COND_AXIS_NAME_INTERNAL-74 "RE_ShutterBCloseOpenTime"
*MEAS_COND_AXIS_NAME_INTERNAL-75 "RE_XrayWarningRamp"
*MEAS_COND_AXIS_NAME_INTERNAL-76 "RE_ShutterAInstallation"
*MEAS_COND_AXIS_NAME_INTERNAL-77 "RE_ShutterARamp"
*MEAS_COND_AXIS_NAME_INTERNAL-78 "RE_ShutterBInstallation"
*MEAS_COND_AXIS_NAME_INTERNAL-79 "RE_ShutterBRamp"
*MEAS_COND_AXIS_NAME_INTERNAL-8 "PrimaryGeometry"
*MEAS_COND_AXIS_NAME_INTERNAL-80 "RE_ExtShutterCLS"
*MEAS_COND_AXIS_NAME_INTERNAL-81 "RE_ExtXrayOFF"
*MEAS_COND_AXIS_NAME_INTERNAL-82 "RE_ExtSafetyCircuit"
*MEAS_COND_AXIS_NAME_INTERNAL-83 "Version_CPU"
*MEAS_COND_AXIS_NAME_INTERNAL-84 "Version_RS1"
*MEAS_COND_AXIS_NAME_INTERNAL-85 "Version_RS2"
*MEAS_COND_AXIS_NAME_INTERNAL-86 "Version_HV"
*MEAS_COND_AXIS_NAME_INTERNAL-87 "Version_CW"
*MEAS_COND_AXIS_NAME_INTERNAL-88 "Version_RT"
*MEAS_COND_AXIS_NAME_INTERNAL-89 "Lens"
*MEAS_COND_AXIS_NAME_INTERNAL-9 "PrimaryMirrorType"
*MEAS_COND_AXIS_NAME_INTERNAL-90 "IncidentPrimary"
*MEAS_COND_AXIS_NAME_INTERNAL-91 "IncidentMonochromator"
*MEAS_COND_AXIS_NAME_INTERNAL-92 "ReceivingOptics"
*MEAS_COND_AXIS_NAME_INTERNAL-93 "CounterMonochromatorKind"
*MEAS_COND_AXIS_NAME-0 "ThetaS"
*MEAS_COND_AXIS_NAME-1 "ThetaD"
*MEAS_COND_AXIS_NAME-10 "CBOType"
*MEAS_COND_AXIS_NAME-11 "CBO-M"
*MEAS_COND_AXIS_NAME-12 "CBO"
*MEAS_COND_AXIS_NAME-13 "IncidentSollerSlit"
*MEAS_COND_AXIS_NAME-14 "IncidentSlitBox"
*MEAS_COND_AXIS_NAME-15 "IncidentSlitBox-_Axis"
*MEAS_COND_AXIS_NAME-16 "SlitDS"
*MEAS_COND_AXIS_NAME-17 "Zs"
*MEAS_COND_AXIS_NAME-18 "IncidentAxdSlit"
*MEAS_COND_AXIS_NAME-19 "LLS"
*MEAS_COND_AXIS_NAME-2 "TwoTheta"
*MEAS_COND_AXIS_NAME-20 "DHLSlit"
*MEAS_COND_AXIS_NAME-21 "Chi"
*MEAS_COND_AXIS_NAME-22 "Phi"
*MEAS_COND_AXIS_NAME-23 "Z"
*MEAS_COND_AXIS_NAME-24 "Alpha"
*MEAS_COND_AXIS_NAME-25 "Beta"
*MEAS_COND_AXIS_NAME-26 "ReceivingSlitBox1"
*MEAS_COND_AXIS_NAME-27 "ReceivingSlitBox1-_Axis"
*MEAS_COND_AXIS_NAME-28 "SlitSS"
*MEAS_COND_AXIS_NAME-29 "Zr"
*MEAS_COND_AXIS_NAME-3 "Omega"
*MEAS_COND_AXIS_NAME-30 "Filter"
*MEAS_COND_AXIS_NAME-31 "PSA"
*MEAS_COND_AXIS_NAME-32 "ReceivingSollerSlit"
*MEAS_COND_AXIS_NAME-33 "ReceivingSlitBox2"
*MEAS_COND_AXIS_NAME-34 "ReceivingSlitBox2-_Axis"
*MEAS_COND_AXIS_NAME-35 "SlitRS"
*MEAS_COND_AXIS_NAME-36 "ModuleSensorType"
*MEAS_COND_AXIS_NAME-37 "PHA"
*MEAS_COND_AXIS_NAME-38 "DetectorBeamStop"
*MEAS_COND_AXIS_NAME-39 "DetectorFilter"
*MEAS_COND_AXIS_NAME-4 "TwoThetaTheta"
*MEAS_COND_AXIS_NAME-40 "DedicatedHolder"
*MEAS_COND_AXIS_NAME-41 "Target_TargetTime"
*MEAS_COND_AXIS_NAME-42 "Target_XrayOnTime"
*MEAS_COND_AXIS_NAME-43 "Target_TMPTime"
*MEAS_COND_AXIS_NAME-44 "Target_RPTime"
*MEAS_COND_AXIS_NAME-45 "Target_FilamentTime"
*MEAS_COND_AXIS_NAME-46 "Target_IG"
*MEAS_COND_AXIS_NAME-47 "Target_GP"
*MEAS_COND_AXIS_NAME-48 "Target_FC"
*MEAS_COND_AXIS_NAME-49 "HVPS_HVPSTime"
*MEAS_COND_AXIS_NAME-5 "TwoThetaOmega"
*MEAS_COND_AXIS_NAME-50 "HVPS_Type1Time"
*MEAS_COND_AXIS_NAME-51 "HVPS_Type2Time"
*MEAS_COND_AXIS_NAME-52 "HVPS_Type3Time"
*MEAS_COND_AXIS_NAME-53 "CW_IERTime"
*MEAS_COND_AXIS_NAME-54 "CW_ECTime"
*MEAS_COND_AXIS_NAME-55 "CW_Flow1"
*MEAS_COND_AXIS_NAME-56 "CW_Temperature1"
*MEAS_COND_AXIS_NAME-57 "CW_Pressure1"
*MEAS_COND_AXIS_NAME-58 "CW_PressureIn"
*MEAS_COND_AXIS_NAME-59 "CW_PressureOut"
*MEAS_COND_AXIS_NAME-6 "OmegaTwoTheta"
*MEAS_COND_AXIS_NAME-60 "CW_Flow2"
*MEAS_COND_AXIS_NAME-61 "CW_Temperature2"
*MEAS_COND_AXIS_NAME-62 "CW_Pressure2"
*MEAS_COND_AXIS_NAME-63 "RE_EnclosureTemp"
*MEAS_COND_AXIS_NAME-64 "RE_EnclosureHummidity"
*MEAS_COND_AXIS_NAME-65 "RE_CabinetTemp"
*MEAS_COND_AXIS_NAME-66 "RE_RPTemp"
*MEAS_COND_AXIS_NAME-67 "RE_ShutterAXrayOnTime"
*MEAS_COND_AXIS_NAME-68 "RE_ShutterATimes"
*MEAS_COND_AXIS_NAME-69 "RE_ShutterAOpenCloseTime"
*MEAS_COND_AXIS_NAME-7 "Ts"
*MEAS_COND_AXIS_NAME-70 "RE_ShutterACloseOpenTime"
*MEAS_COND_AXIS_NAME-71 "RE_ShutterBXrayOnTime"
*MEAS_COND_AXIS_NAME-72 "RE_ShutterBTimes"
*MEAS_COND_AXIS_NAME-73 "RE_ShutterBOpenCloseTime"
*MEAS_COND_AXIS_NAME-74 "RE_ShutterBCloseOpenTime"
*MEAS_COND_AXIS_NAME-75 "RE_XrayWarningRamp"
*MEAS_COND_AXIS_NAME-76 "RE_ShutterAInstallation"
*MEAS_COND_AXIS_NAME-77 "RE_ShutterARamp"
*MEAS_COND_AXIS_NAME-78 "RE_ShutterBInstallation"
*MEAS_COND_AXIS_NAME-79 "RE_ShutterBRamp"
*MEAS_COND_AXIS_NAME-8 "PrimaryGeometry"
*MEAS_COND_AXIS_NAME-80 "RE_ExtShutterCLS"
*MEAS_COND_AXIS_NAME-81 "RE_ExtXrayOFF"
*MEAS_COND_AXIS_NAME-82 "RE_ExtSafetyCircuit"
*MEAS_COND_AXIS_NAME-83 "Version_CPU"
*MEAS_COND_AXIS_NAME-84 "Version_RS1"
*MEAS_COND_AXIS_NAME-85 "Version_RS2"
*MEAS_COND_AXIS_NAME-86 "Version_HV"
*MEAS_COND_AXIS_NAME-87 "Version_CW"
*MEAS_COND_AXIS_NAME-88 "Version_RT"
*MEAS_COND_AXIS_NAME-89 "Lens"
*MEAS_COND_AXIS_NAME-9 "PrimaryMirrorType"
*MEAS_COND_AXIS_NAME-90 "IncidentPrimary"
*MEAS_COND_AXIS_NAME-91 "IncidentMonochromator"
*MEAS_COND_AXIS_NAME-92 "ReceivingOptics"
*MEAS_COND_AXIS_NAME-93 "CounterMonochromatorKind"
*MEAS_COND_AXIS_OFFSET-0 "1.4312"
*MEAS_COND_AXIS_OFFSET-1 "-0.1425"
*MEAS_COND_AXIS_OFFSET-10 "0"
*MEAS_COND_AXIS_OFFSET-11 "0"
*MEAS_COND_AXIS_OFFSET-12 "0"
*MEAS_COND_AXIS_OFFSET-13 "0"
*MEAS_COND_AXIS_OFFSET-14 "0"
*MEAS_COND_AXIS_OFFSET-15 "0"
*MEAS_COND_AXIS_OFFSET-16 "0"
*MEAS_COND_AXIS_OFFSET-17 "0"
*MEAS_COND_AXIS_OFFSET-18 "0"
*MEAS_COND_AXIS_OFFSET-19 "0"
*MEAS_COND_AXIS_OFFSET-2 "1.2887"
*MEAS_COND_AXIS_OFFSET-20 "0"
*MEAS_COND_AXIS_OFFSET-21 "0"
*MEAS_COND_AXIS_OFFSET-22 "0"
*MEAS_COND_AXIS_OFFSET-23 "0"
*MEAS_COND_AXIS_OFFSET-24 "0"
*MEAS_COND_AXIS_OFFSET-25 "0"
*MEAS_COND_AXIS_OFFSET-26 "0"
*MEAS_COND_AXIS_OFFSET-27 "0"
*MEAS_COND_AXIS_OFFSET-28 "0"
*MEAS_COND_AXIS_OFFSET-29 "0"
*MEAS_COND_AXIS_OFFSET-3 "1.4312"
*MEAS_COND_AXIS_OFFSET-30 "0"
*MEAS_COND_AXIS_OFFSET-31 "0"
*MEAS_COND_AXIS_OFFSET-32 "0"
*MEAS_COND_AXIS_OFFSET-33 "0"
*MEAS_COND_AXIS_OFFSET-34 "0"
*MEAS_COND_AXIS_OFFSET-35 "0"
*MEAS_COND_AXIS_OFFSET-36 "0"
*MEAS_COND_AXIS_OFFSET-37 "0"
*MEAS_COND_AXIS_OFFSET-38 "0"
*MEAS_COND_AXIS_OFFSET-39 "0"
*MEAS_COND_AXIS_OFFSET-4 "0"
*MEAS_COND_AXIS_OFFSET-40 "0"
*MEAS_COND_AXIS_OFFSET-41 "0"
*MEAS_COND_AXIS_OFFSET-42 "0"
*MEAS_COND_AXIS_OFFSET-43 "0"
*MEAS_COND_AXIS_OFFSET-44 "0"
*MEAS_COND_AXIS_OFFSET-45 "0"
*MEAS_COND_AXIS_OFFSET-46 "0"
*MEAS_COND_AXIS_OFFSET-47 "0"
*MEAS_COND_AXIS_OFFSET-48 "0"
*MEAS_COND_AXIS_OFFSET-49 "0"
*MEAS_COND_AXIS_OFFSET-5 "0"
*MEAS_COND_AXIS_OFFSET-50 "0"
*MEAS_COND_AXIS_OFFSET-51 "0"
*MEAS_COND_AXIS_OFFSET-52 "0"
*MEAS_COND_AXIS_OFFSET-53 "0"
*MEAS_COND_AXIS_OFFSET-54 "0"
*MEAS_COND_AXIS_OFFSET-55 "0"
*MEAS_COND_AXIS_OFFSET-56 "0"
*MEAS_COND_AXIS_OFFSET-57 "0"
*MEAS_COND_AXIS_OFFSET-58 "0"
*MEAS_COND_AXIS_OFFSET-59 "0"
*MEAS_COND_AXIS_OFFSET-6 "0"
*MEAS_COND_AXIS_OFFSET-60 "0"
*MEAS_COND_AXIS_OFFSET-61 "0"
*MEAS_COND_AXIS_OFFSET-62 "0"
*MEAS_COND_AXIS_OFFSET-63 "0"
*MEAS_COND_AXIS_OFFSET-64 "0"
*MEAS_COND_AXIS_OFFSET-65 "0"
*MEAS_COND_AXIS_OFFSET-66 "0"
*MEAS_COND_AXIS_OFFSET-67 "0"
*MEAS_COND_AXIS_OFFSET-68 "0"
*MEAS_COND_AXIS_OFFSET-69 "0"
*MEAS_COND_AXIS_OFFSET-7 "0"
*MEAS_COND_AXIS_OFFSET-70 "0"
*MEAS_COND_AXIS_OFFSET-71 "0"
*MEAS_COND_AXIS_OFFSET-72 "0"
*MEAS_COND_AXIS_OFFSET-73 "0"
*MEAS_COND_AXIS_OFFSET-74 "0"
*MEAS_COND_AXIS_OFFSET-75 "0"
*MEAS_COND_AXIS_OFFSET-76 "0"
*MEAS_COND_AXIS_OFFSET-77 "0"
*MEAS_COND_AXIS_OFFSET-78 "0"
*MEAS_COND_AXIS_OFFSET-79 "0"
*MEAS_COND_AXIS_OFFSET-8 "0"
*MEAS_COND_AXIS_OFFSET-80 "0"
*MEAS_COND_AXIS_OFFSET-81 "0"
*MEAS_COND_AXIS_OFFSET-82 "0"
*MEAS_COND_AXIS_OFFSET-83 "0"
*MEAS_COND_AXIS_OFFSET-84 "0"
*MEAS_COND_AXIS_OFFSET-85 "0"
*MEAS_COND_AXIS_OFFSET-86 "0"
*MEAS_COND_AXIS_OFFSET-87 "0"
*MEAS_COND_AXIS_OFFSET-88 "0"
*MEAS_COND_AXIS_OFFSET-89 "0"
*MEAS_COND_AXIS_OFFSET-9 "0"
*MEAS_COND_AXIS_OFFSET-90 "0"
*MEAS_COND_AXIS_OFFSET-91 "0"
*MEAS_COND_AXIS_OFFSET-92 "0"
*MEAS_COND_AXIS_OFFSET-93 "0"
*MEAS_COND_AXIS_POSITION-0 "0.0000"
*MEAS_COND_AXIS_POSITION-1 "0.0000"
*MEAS_COND_AXIS_POSITION-10 "Type1"
*MEAS_COND_AXIS_POSITION-11 "0"
*MEAS_COND_AXIS_POSITION-12 "PB"
*MEAS_COND_AXIS_POSITION-13 "Soller_slit_2.5deg"
*MEAS_COND_AXIS_POSITION-14 "1.000mm"
*MEAS_COND_AXIS_POSITION-15 "1.000000"
*MEAS_COND_AXIS_POSITION-16 "1.000mm"
*MEAS_COND_AXIS_POSITION-17 "-0.6296875"
*MEAS_COND_AXIS_POSITION-18 "5mm"
*MEAS_COND_AXIS_POSITION-19 "5mm"
*MEAS_COND_AXIS_POSITION-2 "0.0000"
*MEAS_COND_AXIS_POSITION-20 "5mm"
*MEAS_COND_AXIS_POSITION-21 "0.000"
*MEAS_COND_AXIS_POSITION-22 "0.000"
*MEAS_COND_AXIS_POSITION-23 "0.1064"
*MEAS_COND_AXIS_POSITION-24 "90.000"
*MEAS_COND_AXIS_POSITION-25 "0.000"
*MEAS_COND_AXIS_POSITION-26 "1.000mm"
*MEAS_COND_AXIS_POSITION-27 "1.000000"
*MEAS_COND_AXIS_POSITION-28 "1.000mm"
*MEAS_COND_AXIS_POSITION-29 "0.0100000"
*MEAS_COND_AXIS_POSITION-3 "0.0000"
*MEAS_COND_AXIS_POSITION-30 "Cu_K-beta"
*MEAS_COND_AXIS_POSITION-31 "PSA_open"
*MEAS_COND_AXIS_POSITION-32 "Soller_slit_2.5deg"
*MEAS_COND_AXIS_POSITION-33 "1.100mm"
*MEAS_COND_AXIS_POSITION-34 "1.1"
*MEAS_COND_AXIS_POSITION-35 "1.100mm"
*MEAS_COND_AXIS_POSITION-36 "AC"
*MEAS_COND_AXIS_POSITION-37 ""
*MEAS_COND_AXIS_POSITION-38 "None"
*MEAS_COND_AXIS_POSITION-39 "None"
*MEAS_COND_AXIS_POSITION-4 "0.0000"
*MEAS_COND_AXIS_POSITION-40 "None"
*MEAS_COND_AXIS_POSITION-41 ""
*MEAS_COND_AXIS_POSITION-42 ""
*MEAS_COND_AXIS_POSITION-43 ""
*MEAS_COND_AXIS_POSITION-44 ""
*MEAS_COND_AXIS_POSITION-45 ""
*MEAS_COND_AXIS_POSITION-46 ""
*MEAS_COND_AXIS_POSITION-47 ""
*MEAS_COND_AXIS_POSITION-48 ""
*MEAS_COND_AXIS_POSITION-49 ""
*MEAS_COND_AXIS_POSITION-5 "0.0000"
*MEAS_COND_AXIS_POSITION-50 ""
*MEAS_COND_AXIS_POSITION-51 ""
*MEAS_COND_AXIS_POSITION-52 ""
*MEAS_COND_AXIS_POSITION-53 ""
*MEAS_COND_AXIS_POSITION-54 ""
*MEAS_COND_AXIS_POSITION-55 ""
*MEAS_COND_AXIS_POSITION-56 ""
*MEAS_COND_AXIS_POSITION-57 ""
*MEAS_COND_AXIS_POSITION-58 ""
*MEAS_COND_AXIS_POSITION-59 ""
*MEAS_COND_AXIS_POSITION-6 "0.0000"
*MEAS_COND_AXIS_POSITION-60 ""
*MEAS_COND_AXIS_POSITION-61 ""
*MEAS_COND_AXIS_POSITION-62 ""
*MEAS_COND_AXIS_POSITION-63 ""
*MEAS_COND_AXIS_POSITION-64 ""
*MEAS_COND_AXIS_POSITION-65 ""
*MEAS_COND_AXIS_POSITION-66 ""
*MEAS_COND_AXIS_POSITION-67 ""
*MEAS_COND_AXIS_POSITION-68 ""
*MEAS_COND_AXIS_POSITION-69 ""
*MEAS_COND_AXIS_POSITION-7 "0.4652500"
*MEAS_COND_AXIS_POSITION-70 ""
*MEAS_COND_AXIS_POSITION-71 ""
*MEAS_COND_AXIS_POSITION-72 ""
*MEAS_COND_AXIS_POSITION-73 ""
*MEAS_COND_AXIS_POSITION-74 ""
*MEAS_COND_AXIS_POSITION-75 ""
*MEAS_COND_AXIS_POSITION-76 ""
*MEAS_COND_AXIS_POSITION-77 ""
*MEAS_COND_AXIS_POSITION-78 ""
*MEAS_COND_AXIS_POSITION-79 ""
*MEAS_COND_AXIS_POSITION-8 "Right"
*MEAS_COND_AXIS_POSITION-80 ""
*MEAS_COND_AXIS_POSITION-81 ""
*MEAS_COND_AXIS_POSITION-82 ""
*MEAS_COND_AXIS_POSITION-83 ""
*MEAS_COND_AXIS_POSITION-84 ""
*MEAS_COND_AXIS_POSITION-85 ""
*MEAS_COND_AXIS_POSITION-86 ""
*MEAS_COND_AXIS_POSITION-87 ""
*MEAS_COND_AXIS_POSITION-88 ""
*MEAS_COND_AXIS_POSITION-89 "1"
*MEAS_COND_AXIS_POSITION-9 "None"
*MEAS_COND_AXIS_POSITION-90 "Standard"
*MEAS_COND_AXIS_POSITION-91 "IPS_adaptor"
*MEAS_COND_AXIS_POSITION-92 "PSA_open"
*MEAS_COND_AXIS_POSITION-93 "None"
*MEAS_COND_AXIS_UNIT-0 "deg"
*MEAS_COND_AXIS_UNIT-1 "deg"
*MEAS_COND_AXIS_UNIT-10 ""
*MEAS_COND_AXIS_UNIT-11 "pulse"
*MEAS_COND_AXIS_UNIT-12 ""
*MEAS_COND_AXIS_UNIT-13 ""
*MEAS_COND_AXIS_UNIT-14 ""
*MEAS_COND_AXIS_UNIT-15 "mm"
*MEAS_COND_AXIS_UNIT-16 ""
*MEAS_COND_AXIS_UNIT-17 "mm"
*MEAS_COND_AXIS_UNIT-18 ""
*MEAS_COND_AXIS_UNIT-19 ""
*MEAS_COND_AXIS_UNIT-2 "deg"
*MEAS_COND_AXIS_UNIT-20 ""
*MEAS_COND_AXIS_UNIT-21 "deg"
*MEAS_COND_AXIS_UNIT-22 "deg"
*MEAS_COND_AXIS_UNIT-23 "mm"
*MEAS_COND_AXIS_UNIT-24 "deg"
*MEAS_COND_AXIS_UNIT-25 "deg"
*MEAS_COND_AXIS_UNIT-26 ""
*MEAS_COND_AXIS_UNIT-27 "mm"
*MEAS_COND_AXIS_UNIT-28 ""
*MEAS_COND_AXIS_UNIT-29 "mm"
*MEAS_COND_AXIS_UNIT-3 "deg"
*MEAS_COND_AXIS_UNIT-30 ""
*MEAS_COND_AXIS_UNIT-31 ""
*MEAS_COND_AXIS_UNIT-32 ""
*MEAS_COND_AXIS_UNIT-33 ""
*MEAS_COND_AXIS_UNIT-34 "mm"
*MEAS_COND_AXIS_UNIT-35 ""
*MEAS_COND_AXIS_UNIT-36 ""
*MEAS_COND_AXIS_UNIT-37 "keV"
*MEAS_COND_AXIS_UNIT-38 ""
*MEAS_COND_AXIS_UNIT-39 ""
*MEAS_COND_AXIS_UNIT-4 "deg"
*MEAS_COND_AXIS_UNIT-40 ""
*MEAS_COND_AXIS_UNIT-41 "H"
*MEAS_COND_AXIS_UNIT-42 "H"
*MEAS_COND_AXIS_UNIT-43 "H"
*MEAS_COND_AXIS_UNIT-44 "H"
*MEAS_COND_AXIS_UNIT-45 "H"
*MEAS_COND_AXIS_UNIT-46 "mV"
*MEAS_COND_AXIS_UNIT-47 "V"
*MEAS_COND_AXIS_UNIT-48 "V"
*MEAS_COND_AXIS_UNIT-49 "H"
*MEAS_COND_AXIS_UNIT-5 "deg"
*MEAS_COND_AXIS_UNIT-50 "H"
*MEAS_COND_AXIS_UNIT-51 "H"
*MEAS_COND_AXIS_UNIT-52 "H"
*MEAS_COND_AXIS_UNIT-53 "H"
*MEAS_COND_AXIS_UNIT-54 "uS/m"
*MEAS_COND_AXIS_UNIT-55 "L/min"
*MEAS_COND_AXIS_UNIT-56 "degree"
*MEAS_COND_AXIS_UNIT-57 "MPa"
*MEAS_COND_AXIS_UNIT-58 "MPa"
*MEAS_COND_AXIS_UNIT-59 "MPa"
*MEAS_COND_AXIS_UNIT-6 "deg"
*MEAS_COND_AXIS_UNIT-60 "L/min"
*MEAS_COND_AXIS_UNIT-61 "C"
*MEAS_COND_AXIS_UNIT-62 "MPa"
*MEAS_COND_AXIS_UNIT-63 "degree"
*MEAS_COND_AXIS_UNIT-64 "percent"
*MEAS_COND_AXIS_UNIT-65 "degree"
*MEAS_COND_AXIS_UNIT-66 "C"
*MEAS_COND_AXIS_UNIT-67 "H"
*MEAS_COND_AXIS_UNIT-68 "time"
*MEAS_COND_AXIS_UNIT-69 "msec"
*MEAS_COND_AXIS_UNIT-7 "mm"
*MEAS_COND_AXIS_UNIT-70 "msec"
*MEAS_COND_AXIS_UNIT-71 "H"
*MEAS_COND_AXIS_UNIT-72 "times"
*MEAS_COND_AXIS_UNIT-73 "msec"
*MEAS_COND_AXIS_UNIT-74 "msec"
*MEAS_COND_AXIS_UNIT-75 "-"
*MEAS_COND_AXIS_UNIT-76 "-"
*MEAS_COND_AXIS_UNIT-77 "-"
*MEAS_COND_AXIS_UNIT-78 ""
*MEAS_COND_AXIS_UNIT-79 "-"
*MEAS_COND_AXIS_UNIT-8 ""
*MEAS_COND_AXIS_UNIT-80 "-"
*MEAS_COND_AXIS_UNIT-81 "-"
*MEAS_COND_AXIS_UNIT-82 ""
*MEAS_COND_AXIS_UNIT-83 ""
*MEAS_COND_AXIS_UNIT-84 ""
*MEAS_COND_AXIS_UNIT-85 ""
*MEAS_COND_AXIS_UNIT-86 ""
*MEAS_COND_AXIS_UNIT-87 ""
*MEAS_COND_AXIS_UNIT-88 ""
*MEAS_COND_AXIS_UNIT-89 ""
*MEAS_COND_AXIS_UNIT-9 ""
*MEAS_COND_AXIS_UNIT-90 ""
*MEAS_COND_AXIS_UNIT-91 ""
*MEAS_COND_AXIS_UNIT-92 ""
*MEAS_COND_AXIS_UNIT-93 ""
*MEAS_COND_OPT_ATTR "PB"
*MEAS_COND_OPT_NAME "User defined settings"
*MEAS_COND_XG_CURRENT "40"
*MEAS_COND_XG_VOLTAGE "40"
*MEAS_COND_XG_WAVE_TYPE "Ka"
*MEAS_DATA_COUNT "7001"
*MEAS_SCAN_AXIS_X "TwoThetaTheta"
*MEAS_SCAN_AXIS_X_INTERNAL "TwoThetaTheta"
*MEAS_SCAN_END_TIME "03/07/2023 15:47:19"
*MEAS_SCAN_MODE "CONTINUOUS"
*MEAS_SCAN_MODE_INTERNAL "CONTINUOUS"
*MEAS_SCAN_RESOLUTION_X "0.0002"
*MEAS_SCAN_SPEED "4.0000"
*MEAS_SCAN_SPEED_UNIT "deg/min"
*MEAS_SCAN_START "10.0000"
*MEAS_SCAN_START_TIME "03/07/2023 15:29:28"
*MEAS_SCAN_STEP "0.0100"
*MEAS_SCAN_STOP "80.0000"
*MEAS_SCAN_UNIT_X "deg"
*MEAS_SCAN_UNIT_Y "counts"
*RAS_HEADER_END
*RAS_INT_START
10.0000 4.0443 1.0000
10.0100 6.1692 1.0000
10.0200 3.9327 1.0000
10.0300 4.8179 1.0000
10.0400 7.0373 1.0000
10.0500 6.3817 1.0000
10.0600 8.0659 1.0000
10.0700 4.8471 1.0000
10.0800 3.3668 1.0000
10.0900 7.9650 1.0000
10.1000 2.0055 1.0000
10.1100 0.0000 1.0000
10.1200 9.3453 1.0000
10.1300 2.3757 1.0000
10.1400 1.9896 1.0000
10.1500 1.3078 1.0000
10.1600 3.9621 1.0000
10.1700 5.3303 1.0000
10.1800 4.1417 1.0000
10.1900 5.7023 1.0000
10.2000 4.0687 1.0000
10.2100 5.6690 1.0000
10.2200 7.7559 1.0000
10.2300 3.3696 1.0000
10.2400 5.5706 1.0000
10.2500 5.6974 1.0000
10.2600 8.6907 1.0000
10.2700 1.0213 1.0000
10.2800 3.0497 1.0000
10.2900 7.3877 1.0000
10.3000 4.6327 1.0000
10.3100 3.0565 1.0000
10.3200 4.7135 1.0000
10.3300 6.8211 1.0000
10.3400 5.9256 1.0000
10.3500 2.0350 1.0000
10.3600 2.8190 1.0000
10.3700 6.1932 1.0000
10.3800 4.0648 1.0000
10.3900 2.3278 1.0000
10.4000 0.0000 1.0000
10.4100 4.0354 1.0000
10.4200 1.9847 1.0000
10.4300 1.0020 1.0000
10.4400 4.2949 1.0000
10.4500 4.0185 1.0000
10.4600 6.2840 1.0000
10.4700 3.0170 1.0000
10.4800 1.0018 1.0000
10.4900 3.8991 1.0000
10.5000 0.0000 1.0000
10.5100 5.3155 1.0000
10.5200 5.4083 1.0000
10.5300 2.0031 1.0000
10.5400 2.2889 1.0000
10.5500 3.9698 1.0000
10.5600 3.6167 1.0000
10.5700 1.0142 1.0000
10.5800 1.9999 1.0000
10.5900 2.2309 1.0000
10.6000 4.9468 1.0000
10.6100 8.3633 1.0000
10.6200 2.9618 1.0000
10.6300 3.4966 1.0000
10.6400 2.9969 1.0000
10.6500 3.0144 1.0000
10.6600 0.9899 1.0000
10.6700 2.4005 1.0000
10.6800 2.3811 1.0000
10.6900 1.0079 1.0000
10.7000 3.3189 1.0000
10.7100 4.4555 1.0000
10.7200 4.3650 1.0000
10.7300 8.4584 1.0000
10.7400 3.0440 1.0000
10.7500 3.9183 1.0000
10.7600 3.0044 1.0000
10.7700 3.3611 1.0000
10.7800 0.3410 1.0000
10.7900 0.0000 1.0000
10.8000 0.0000 1.0000
10.8100 5.2398 1.0000
10.8200 3.8601 1.0000
10.8300 1.9918 1.0000
10.8400 5.1128 1.0000
10.8500 4.3571 1.0000
10.8600 1.9956 1.0000
10.8700 1.9860 1.0000
10.8800 1.6497 1.0000
10.8900 2.0510 1.0000
10.9000 8.9246 1.0000
10.9100 5.3641 1.0000
10.9200 8.4328 1.0000
10.9300 4.6118 1.0000
10.9400 3.4449 1.0000
10.9500 3.3659 1.0000
10.9600 5.5445 1.0000
10.9700 1.3180 1.0000
10.9800 2.6707 1.0000
10.9900 7.9814 1.0000
11.0000 2.9065 1.0000
11.0100 2.3293 1.0000
11.0200 6.0277 1.0000
11.0300 0.3251 1.0000
11.0400 3.0442 1.0000
11.0500 4.3549 1.0000
11.0600 2.3052 1.0000
11.0700 2.8561 1.0000
11.0800 4.4084 1.0000
11.0900 0.9695 1.0000
11.1000 2.5881 1.0000
11.1100 4.3591 1.0000
11.1200 3.3799 1.0000
11.1300 0.9995 1.0000
11.1400 2.0297 1.0000
11.1500 5.0096 1.0000
11.1600 4.6168 1.0000
11.1700 4.0839 1.0000
11.1800 2.3181 1.0000
11.1900 7.0491 1.0000
11.2000 5.0656 1.0000
11.2100 7.3921 1.0000
11.2200 3.0168 1.0000
11.2300 3.0052 1.0000
11.2400 4.6624 1.0000
11.2500 4.0601 1.0000
11.2600 3.6594 1.0000
11.2700 0.9517 1.0000
11.2800 2.0006 1.0000
11.2900 8.3005 1.0000
11.3000 1.3023 1.0000
11.3100 2.8520 1.0000
11.3200 4.1285 1.0000
11.3300 3.3005 1.0000
11.3400 4.6298 1.0000
11.3500 2.3554 1.0000
11.3600 4.3423 1.0000
11.3700 2.9587 1.0000
11.3800 0.0000 1.0000
11.3900 3.0545 1.0000
11.4000 4.0013 1.0000
11.4100 6.0528 1.0000
11.4200 5.9537 1.0000
11.4300 4.9498 1.0000
11.4400 3.0003 1.0000
11.4500 4.9538 1.0000
11.4600 1.9795 1.0000
11.4700 3.3557 1.0000
11.4800 4.5770 1.0000
11.4900 0.9923 1.0000
11.5000 1.3412 1.0000
11.5100 9.4761 1.0000
11.5200 1.3228 1.0000
11.5300 2.4605 1.0000
11.5400 5.6825 1.0000
11.5500 1.9682 1.0000
11.5600 3.3882 1.0000
11.5700 5.0479 1.0000
11.5800 1.9872 1.0000
11.5900 2.3483 1.0000
11.6000 4.1671 1.0000
11.6100 2.2966 1.0000
11.6200 8.0410 1.0000
11.6300 3.3366 1.0000
11.6400 1.0089 1.0000
11.6500 5.3458 1.0000
11.6600 5.8300 1.0000
11.6700 1.9586 1.0000
11.6800 4.2663 1.0000
11.6900 1.9984 1.0000
11.7000 5.3384 1.0000
11.7100 1.2959 1.0000
11.7200 6.1222 1.0000
11.7300 2.9582 1.0000
11.7400 4.1181 1.0000
11.7500 2.0082 1.0000
11.7600 2.9697 1.0000
11.7700 4.2941 1.0000
11.7800 2.9910 1.0000
11.7900 2.9757 1.0000
11.8000 2.0067 1.0000
11.8100 3.1373 1.0000
11.8200 7.1655 1.0000
11.8300 2.9116 1.0000
11.8400 1.3595 1.0000
11.8500 2.0277 1.0000
11.8600 4.9207 1.0000
11.8700 3.6645 1.0000
11.8800 5.9604 1.0000
11.8900 2.2750 1.0000
11.9000 0.3419 1.0000
11.9100 6.3360 1.0000
11.9200 5.9927 1.0000
11.9300 3.0153 1.0000
11.9400 2.3531 1.0000
11.9500 3.4302 1.0000
11.9600 4.6677 1.0000
11.9700 0.3419 1.0000
11.9800 4.3499 1.0000
11.9900 1.9733 1.0000
12.0000 2.7649 1.0000
12.0100 4.3886 1.0000
12.0200 4.0386 1.0000
12.0300 7.3747 1.0000
12.0400 4.0014 1.0000
12.0500 4.0693 1.0000
12.0600 3.0118 1.0000
12.0700 0.3393 1.0000
12.0800 3.9594 1.0000
12.0900 4.0527 1.0000
12.1000 3.9944 1.0000
12.1100 1.9756 1.0000
12.1200 0.3236 1.0000
12.1300 4.0881 1.0000
12.1400 3.2622 1.0000
12.1500 3.3427 1.0000
12.1600 1.3223 1.0000
12.1700 1.3450 1.0000
12.1800 5.9171 1.0000
12.1900 5.7721 1.0000
12.2000 2.0536 1.0000
12.2100 6.2816 1.0000
12.2200 1.3445 1.0000
12.2300 5.7835 1.0000
12.2400 3.5050 1.0000
12.2500 3.6494 1.0000
12.2600 4.4032 1.0000
12.2700 7.3325 1.0000
12.2800 2.3328 1.0000
12.2900 7.5595 1.0000
12.3000 4.2695 1.0000
12.3100 2.9772 1.0000
12.3200 2.9982 1.0000
12.3300 5.6756 1.0000
12.3400 2.3390 1.0000
12.3500 4.9925 1.0000
12.3600 3.3844 1.0000
12.3700 3.3134 1.0000
12.3800 4.0501 1.0000
12.3900 1.0368 1.0000
12.4000 0.9552 1.0000
12.4100 5.2866 1.0000
12.4200 2.0276 1.0000
12.4300 4.0510 1.0000
12.4400 1.3339 1.0000
12.4500 3.5391 1.0000
12.4600 5.0869 1.0000
12.4700 4.3753 1.0000
12.4800 0.6496 1.0000
12.4900 2.0461 1.0000
12.5000 2.9844 1.0000
12.5100 2.7083 1.0000
12.5200 2.0559 1.0000
12.5300 2.2703 1.0000
12.5400 1.0308 1.0000
12.5500 6.5364 1.0000
12.5600 4.7987 1.0000
12.5700 3.7202 1.0000
12.5800 3.3343 1.0000
12.5900 0.9872 1.0000
12.6000 3.9820 1.0000
12.6100 1.2921 1.0000
12.6200 3.6008 1.0000
12.6300 4.0661 1.0000
12.6400 2.4257 1.0000
12.6500 6.5746 1.0000
12.6600 2.0198 1.0000
12.6700 3.3073 1.0000
12.6800 1.9805 1.0000
12.6900 1.4012 1.0000
12.7000 1.2889 1.0000
12.7100 2.6893 1.0000
12.7200 4.3410 1.0000
12.7300 0.0000 1.0000
12.7400 2.0206 1.0000
12.7500 2.3271 1.0000
12.7600 4.9824 1.0000
12.7700 1.9936 1.0000
12.7800 1.9807 1.0000
12.7900 1.9508 1.0000
12.8000 5.7140 1.0000
12.8100 0.0000 1.0000
12.8200 4.5970 1.0000
12.8300 3.0575 1.0000
12.8400 1.6690 1.0000
12.8500 5.2851 1.0000
12.8600 0.9613 1.0000
12.8700 0.3236 1.0000
12.8800 3.3170 1.0000
12.8900 0.1102 1.0000
12.9000 2.0125 1.0000
12.9100 4.9257 1.0000
12.9200 2.6746 1.0000
12.9300 2.9912 1.0000
12.9400 3.5565 1.0000
12.9500 2.0008 1.0000
12.9600 3.9776 1.0000
12.9700 2.9453 1.0000
12.9800 3.2403 1.0000
12.9900 4.2939 1.0000
13.0000 2.6964 1.0000
13.0100 1.9974 1.0000
13.0200 4.0125 1.0000
13.0300 0.9927 1.0000
13.0400 0.0000 1.0000
13.0500 3.3484 1.0000
13.0600 4.3814 1.0000
13.0700 1.3614 1.0000
13.0800 3.6773 1.0000
13.0900 2.5297 1.0000
13.1000 2.8893 1.0000
13.1100 0.3330 1.0000
13.1200 2.0447 1.0000
13.1300 3.0804 1.0000
13.1400 3.0056 1.0000
13.1500 3.3439 1.0000
13.1600 4.2891 1.0000
13.1700 1.3408 1.0000
13.1800 0.9876 1.0000
13.1900 2.3487 1.0000
13.2000 2.0772 1.0000
13.2100 1.2940 1.0000
13.2200 3.0291 1.0000
13.2300 4.3738 1.0000
13.2400 1.3702 1.0000
13.2500 0.9775 1.0000
13.2600 1.9786 1.0000
13.2700 6.3473 1.0000
13.2800 2.3460 1.0000
13.2900 2.0226 1.0000
13.3000 1.6575 1.0000
13.3100 0.0000 1.0000
13.3200 1.9637 1.0000
13.3300 4.2821 1.0000
13.3400 1.9942 1.0000
13.3500 2.0309 1.0000
13.3600 3.3708 1.0000
13.3700 8.5367 1.0000
13.3800 0.0000 1.0000
13.3900 1.0577 1.0000
13.4000 3.9990 1.0000
13.4100 4.0491 1.0000
13.4200 2.3253 1.0000
13.4300 0.9621 1.0000
13.4400 1.3307 1.0000
13.4500 4.3406 1.0000
13.4600 7.7936 1.0000
13.4700 0.5491 1.0000
13.4800 3.0085 1.0000
13.4900 3.6627 1.0000
13.5000 7.3278 1.0000
13.5100 5.3318 1.0000
13.5200 2.0116 1.0000
13.5300 2.0300 1.0000
13.5400 3.3785 1.0000
13.5500 0.9618 1.0000
13.5600 0.7754 1.0000
13.5700 2.6250 1.0000
13.5800 2.0725 1.0000
13.5900 1.2951 1.0000
13.6000 2.6681 1.0000
13.6100 1.9577 1.0000
13.6200 3.2927 1.0000
13.6300 1.0048 1.0000
13.6400 4.9928 1.0000
13.6500 5.3118 1.0000
13.6600 1.8445 1.0000
13.6700 2.9722 1.0000
13.6800 0.9811 1.0000
13.6900 4.1430 1.0000
13.7000 5.0635 1.0000
13.7100 3.0232 1.0000
13.7200 0.9415 1.0000
13.7300 4.1040 1.0000
13.7400 2.3534 1.0000
13.7500 4.5731 1.0000
13.7600 1.9955 1.0000
13.7700 2.0893 1.0000
13.7800 2.3409 1.0000
13.7900 1.9907 1.0000
13.8000 2.3105 1.0000
13.8100 0.6546 1.0000
13.8200 2.0932 1.0000
13.8300 3.7892 1.0000
13.8400 2.0396 1.0000
13.8500 5.0232 1.0000
13.8600 2.1316 1.0000
13.8700 4.0807 1.0000
13.8800 6.0285 1.0000
13.8900 2.0282 1.0000
13.9000 2.3618 1.0000
13.9100 4.5970 1.0000
13.9200 3.0816 1.0000
13.9300 0.9886 1.0000
13.9400 0.9804 1.0000
13.9500 2.0583 1.0000
13.9600 1.9573 1.0000
13.9700 0.9997 1.0000
13.9800 3.9931 1.0000
13.9900 4.9711 1.0000
14.0000 1.3378 1.0000
14.0100 3.0389 1.0000
14.0200 2.9851 1.0000
14.0300 2.3197 1.0000
14.0400 2.9949 1.0000
14.0500 1.3413 1.0000
14.0600 0.0000 1.0000
14.0700 3.9977 1.0000
14.0800 1.9926 1.0000
14.0900 1.0056 1.0000
14.1000 3.3344 1.0000
14.1100 4.0203 1.0000
14.1200 0.0000 1.0000
14.1300 2.6868 1.0000
14.1400 0.9875 1.0000
14.1500 1.6715 1.0000
14.1600 6.1844 1.0000
14.1700 4.3786 1.0000
14.1800 1.0463 1.0000
14.1900 2.0494 1.0000
14.2000 2.0275 1.0000
14.2100 0.9579 1.0000
14.2200 2.6338 1.0000
14.2300 2.0701 1.0000
14.2400 6.3467 1.0000
14.2500 0.0000 1.0000
14.2600 1.0325 1.0000
14.2700 2.9537 1.0000
14.2800 1.0094 1.0000
14.2900 1.3053 1.0000
14.3000 3.3312 1.0000
14.3100 2.9348 1.0000
14.3200 1.3171 1.0000
14.3300 0.3331 1.0000
14.3400 1.9758 1.0000
14.3500 0.9826 1.0000
14.3600 4.0392 1.0000
14.3700 0.9911 1.0000
14.3800 0.9971 1.0000
14.3900 2.9936 1.0000
14.4000 4.0797 1.0000
14.4100 0.0000 1.0000
14.4200 0.6606 1.0000
14.4300 4.0434 1.0000
14.4400 1.3338 1.0000
14.4500 3.4931 1.0000
14.4600 1.3730 1.0000
14.4700 1.3465 1.0000
14.4800 3.4221 1.0000
14.4900 1.9733 1.0000
14.5000 7.4725 1.0000
14.5100 0.3325 1.0000
14.5200 4.2611 1.0000
14.5300 2.3663 1.0000
14.5400 8.1363 1.0000
14.5500 2.0527 1.0000
14.5600 2.0793 1.0000
14.5700 0.9620 1.0000
14.5800 5.7331 1.0000
14.5900 4.9201 1.0000
14.6000 1.9849 1.0000
14.6100 0.9920 1.0000
14.6200 0.0000 1.0000
14.6300 0.9802 1.0000
14.6400 3.1181 1.0000
14.6500 3.0357 1.0000
14.6600 0.9894 1.0000
14.6700 1.0155 1.0000
14.6800 2.0019 1.0000
14.6900 1.3446 1.0000
14.7000 1.9772 1.0000
14.7100 1.0335 1.0000
14.7200 1.0218 1.0000
14.7300 1.3578 1.0000
14.7400 0.9923 1.0000
14.7500 2.2842 1.0000
14.7600 1.3413 1.0000
14.7700 0.9973 1.0000
14.7800 2.0144 1.0000
14.7900 0.9988 1.0000
14.8000 2.0410 1.0000
14.8100 2.0979 1.0000
14.8200 1.0143 1.0000
14.8300 2.6307 1.0000
14.8400 2.3307 1.0000
14.8500 0.9492 1.0000
14.8600 2.0200 1.0000
14.8700 3.4346 1.0000
14.8800 4.3338 1.0000
14.8900 2.3232 1.0000
14.9000 5.1828 1.0000
14.9100 1.9256 1.0000
14.9200 3.3331 1.0000
14.9300 1.9883 1.0000
14.9400 4.3722 1.0000
14.9500 0.3266 1.0000
14.9600 6.7078 1.0000
14.9700 2.3454 1.0000
14.9800 1.3105 1.0000
14.9900 4.3741 1.0000
15.0000 3.3753 1.0000
15.0100 1.0083 1.0000
15.0200 4.0458 1.0000
15.0300 2.0181 1.0000
15.0400 3.6847 1.0000
15.0500 3.0409 1.0000
15.0600 0.9989 1.0000
15.0700 0.0000 1.0000
15.0800 2.0343 1.0000
15.0900 2.0384 1.0000
15.1000 0.0000 1.0000
15.1100 0.0000 1.0000
15.1200 3.0623 1.0000
15.1300 5.3630 1.0000
15.1400 2.0253 1.0000
15.1500 3.4193 1.0000
15.1600 2.3694 1.0000
15.1700 1.9458 1.0000
15.1800 0.3284 1.0000
15.1900 2.4246 1.0000
15.2000 0.3419 1.0000
15.2100 1.3098 1.0000
15.2200 0.3304 1.0000
15.2300 2.3678 1.0000
15.2400 0.9849 1.0000
15.2500 0.9868 1.0000
15.2600 3.0563 1.0000
15.2700 2.0474 1.0000
15.2800 1.9420 1.0000
15.2900 3.3742 1.0000
15.3000 1.0008 1.0000
15.3100 5.0148 1.0000
15.3200 2.9790 1.0000
15.3300 4.3897 1.0000
15.3400 2.9478 1.0000
15.3500 2.3275 1.0000
15.3600 0.3314 1.0000
15.3700 5.0163 1.0000
15.3800 2.0112 1.0000
15.3900 3.4838 1.0000
15.4000 1.3351 1.0000
15.4100 3.8522 1.0000
15.4200 4.0459 1.0000
15.4300 5.0326 1.0000
15.4400 2.0253 1.0000
15.4500 0.9919 1.0000
15.4600 0.9651 1.0000
15.4700 1.9818 1.0000
15.4800 3.3334 1.0000
15.4900 4.6860 1.0000
15.5000 0.6487 1.0000
15.5100 3.8305 1.0000
15.5200 1.3544 1.0000
15.5300 0.0000 1.0000
15.5400 2.9378 1.0000
15.5500 3.3162 1.0000
15.5600 2.0611 1.0000
15.5700 4.0734 1.0000
15.5800 4.7166 1.0000
15.5900 1.2794 1.0000
15.6000 5.9653 1.0000
15.6100 4.0160 1.0000
15.6200 4.6184 1.0000
15.6300 2.3393 1.0000
15.6400 0.3408 1.0000
15.6500 4.4047 1.0000
15.6600 2.0199 1.0000
15.6700 1.3091 1.0000
15.6800 0.9977 1.0000
15.6900 3.2944 1.0000
15.7000 2.9701 1.0000
15.7100 0.0000 1.0000
15.7200 1.0033 1.0000
15.7300 3.3716 1.0000
15.7400 2.3712 1.0000
15.7500 6.1532 1.0000
15.7600 2.0197 1.0000
15.7700 0.3258 1.0000
15.7800 2.2933 1.0000
15.7900 2.0460 1.0000
15.8000 5.1724 1.0000
15.8100 3.5407 1.0000
15.8200 1.9852 1.0000
15.8300 1.0226 1.0000
15.8400 2.3929 1.0000
15.8500 1.3819 1.0000
15.8600 1.0213 1.0000
15.8700 2.0203 1.0000
15.8800 1.0293 1.0000
15.8900 1.9398 1.0000
15.9000 0.0000 1.0000
15.9100 4.0692 1.0000
15.9200 0.9792 1.0000
15.9300 2.6826 1.0000
15.9400 1.3151 1.0000
15.9500 2.0301 1.0000
15.9600 4.7034 1.0000
15.9700 0.9926 1.0000
15.9800 2.0132 1.0000
15.9900 0.0000 1.0000
16.0000 0.9997 1.0000
16.0100 4.3727 1.0000
16.0200 2.3962 1.0000
16.0300 1.9946 1.0000
16.0400 2.0023 1.0000
16.0500 5.4231 1.0000
16.0600 1.5673 1.0000
16.0700 0.6800 1.0000
16.0800 2.3652 1.0000
16.0900 0.0000 1.0000
16.1000 3.3565 1.0000
16.1100 2.9815 1.0000
16.1200 2.9309 1.0000
16.1300 1.3776 1.0000
16.1400 3.3959 1.0000
16.1500 2.5884 1.0000
16.1600 1.7333 1.0000
16.1700 2.9796 1.0000
16.1800 2.3762 1.0000
16.1900 1.3247 1.0000
16.2000 3.0089 1.0000
16.2100 4.3402 1.0000
16.2200 2.9553 1.0000
16.2300 1.9574 1.0000
16.2400 2.2997 1.0000
16.2500 3.3557 1.0000
16.2600 0.9843 1.0000
16.2700 5.1044 1.0000
16.2800 0.9738 1.0000
16.2900 2.0424 1.0000
16.3000 2.0558 1.0000
16.3100 3.9431 1.0000
16.3200 0.3407 1.0000
16.3300 4.5293 1.0000
16.3400 1.0087 1.0000
16.3500 0.0000 1.0000
16.3600 1.9731 1.0000
16.3700 1.3458 1.0000
16.3800 0.3250 1.0000
16.3900 1.0055 1.0000
16.4000 2.3925 1.0000
16.4100 4.0974 1.0000
16.4200 2.4042 1.0000
16.4300 1.0376 1.0000
16.4400 1.0020 1.0000
16.4500 4.4622 1.0000
16.4600 1.0071 1.0000
16.4700 3.7128 1.0000
16.4800 2.3834 1.0000
16.4900 2.0121 1.0000
16.5000 2.7885 1.0000
16.5100 3.0228 1.0000
16.5200 0.9726 1.0000
16.5300 1.3223 1.0000
16.5400 2.8509 1.0000
16.5500 2.6126 1.0000
16.5600 0.0000 1.0000
16.5700 0.9995 1.0000
16.5800 1.9903 1.0000
16.5900 0.0000 1.0000
16.6000 0.3481 1.0000
16.6100 3.4934 1.0000
16.6200 0.9460 1.0000
16.6300 1.0601 1.0000
16.6400 2.4415 1.0000
16.6500 4.3497 1.0000
16.6600 0.0000 1.0000
16.6700 1.0229 1.0000
16.6800 2.3695 1.0000
16.6900 5.5645 1.0000
16.7000 0.0000 1.0000
16.7100 2.0163 1.0000
16.7200 0.3296 1.0000
16.7300 3.7456 1.0000
16.7400 0.9917 1.0000
16.7500 0.9940 1.0000
16.7600 1.0006 1.0000
16.7700 5.0128 1.0000
16.7800 3.9487 1.0000
16.7900 1.3062 1.0000
16.8000 2.0634 1.0000
16.8100 1.9529 1.0000
16.8200 0.0000 1.0000
16.8300 0.0000 1.0000
16.8400 1.9852 1.0000
16.8500 0.0000 1.0000
16.8600 1.0050 1.0000
16.8700 0.0000 1.0000
16.8800 6.7439 1.0000
16.8900 2.0224 1.0000
16.9000 2.9487 1.0000
16.9100 3.0064 1.0000
16.9200 3.3094 1.0000
16.9300 2.7469 1.0000
16.9400 1.9988 1.0000
16.9500 1.6572 1.0000
16.9600 3.0024 1.0000
16.9700 1.0111 1.0000
16.9800 3.1065 1.0000
16.9900 2.2962 1.0000
17.0000 0.9960 1.0000
17.0100 2.0168 1.0000
17.0200 0.0000 1.0000
17.0300 2.0066 1.0000
17.0400 1.0096 1.0000
17.0500 4.0597 1.0000
17.0600 1.3468 1.0000
17.0700 3.0032 1.0000
17.0800 1.0262 1.0000
17.0900 1.0287 1.0000
17.1000 2.6052 1.0000
17.1100 0.9887 1.0000
17.1200 1.0716 1.0000
17.1300 1.3418 1.0000
17.1400 2.0271 1.0000
17.1500 2.0314 1.0000
17.1600 0.0000 1.0000
17.1700 2.0157 1.0000
17.1800 4.3477 1.0000
17.1900 2.0632 1.0000
17.2000 2.3289 1.0000
17.2100 0.0000 1.0000
17.2200 1.9816 1.0000
17.2300 4.0009 1.0000
17.2400 0.0000 1.0000
17.2500 1.9765 1.0000
17.2600 1.3285 1.0000
17.2700 3.2774 1.0000
17.2800 2.0027 1.0000
17.2900 3.0774 1.0000
17.3000 2.3617 1.0000
17.3100 1.3433 1.0000
17.3200 1.3393 1.0000
17.3300 0.6698 1.0000
17.3400 3.0701 1.0000
17.3500 3.1050 1.0000
17.3600 1.0220 1.0000
17.3700 1.9854 1.0000
17.3800 0.9714 1.0000
17.3900 2.3051 1.0000
17.4000 1.3611 1.0000
17.4100 3.0364 1.0000
17.4200 2.9906 1.0000
17.4300 0.0000 1.0000
17.4400 2.9369 1.0000
17.4500 0.6870 1.0000
17.4600 1.3312 1.0000
17.4700 0.0000 1.0000
17.4800 2.0008 1.0000
17.4900 0.9850 1.0000
17.5000 5.0359 1.0000
17.5100 1.3288 1.0000
17.5200 4.0265 1.0000
17.5300 5.0087 1.0000
17.5400 0.0000 1.0000
17.5500 1.9473 1.0000
17.5600 2.0351 1.0000
17.5700 2.0109 1.0000
17.5800 0.0000 1.0000
17.5900 1.9791 1.0000
17.6000 1.0359 1.0000
17.6100 0.9902 1.0000
17.6200 1.0107 1.0000
17.6300 3.0008 1.0000
17.6400 3.3273 1.0000
17.6500 2.0503 1.0000
17.6600 0.9839 1.0000
17.6700 0.0000 1.0000
17.6800 3.0572 1.0000
17.6900 1.3279 1.0000
17.7000 2.2809 1.0000
17.7100 2.3676 1.0000
17.7200 0.0000 1.0000
17.7300 2.0112 1.0000
17.7400 2.0155 1.0000
17.7500 2.3094 1.0000
17.7600 0.0000 1.0000
17.7700 1.5272 1.0000
17.7800 3.3588 1.0000
17.7900 0.9774 1.0000
17.8000 0.0000 1.0000
17.8100 1.9778 1.0000
17.8200 3.9378 1.0000
17.8300 3.0792 1.0000
17.8400 1.9993 1.0000
17.8500 2.9451 1.0000
17.8600 4.6465 1.0000
17.8700 0.0000 1.0000
17.8800 2.0175 1.0000
17.8900 2.9998 1.0000
17.9000 0.9613 1.0000
17.9100 4.9028 1.0000
17.9200 0.0000 1.0000
17.9300 1.3199 1.0000
17.9400 1.0152 1.0000
17.9500 1.9330 1.0000
17.9600 4.8616 1.0000
17.9700 1.9544 1.0000
17.9800 0.9947 1.0000
17.9900 3.5134 1.0000
18.0000 3.7214 1.0000
18.0100 5.6766 1.0000
18.0200 0.9995 1.0000
18.0300 6.0661 1.0000
18.0400 2.9601 1.0000
18.0500 2.2933 1.0000
18.0600 1.0187 1.0000
18.0700 1.3225 1.0000
18.0800 1.9681 1.0000
18.0900 0.3325 1.0000
18.1000 1.3265 1.0000
18.1100 0.9799 1.0000
18.1200 0.9733 1.0000
18.1300 1.0457 1.0000
18.1400 0.3258 1.0000
18.1500 3.0346 1.0000
18.1600 0.9889 1.0000
18.1700 1.6696 1.0000
18.1800 1.0148 1.0000
18.1900 2.7224 1.0000
18.2000 5.7263 1.0000
18.2100 0.9843 1.0000
18.2200 1.0203 1.0000
18.2300 5.3674 1.0000
18.2400 1.3660 1.0000
18.2500 1.0046 1.0000
18.2600 2.3428 1.0000
18.2700 2.9515 1.0000
18.2800 1.9670 1.0000
18.2900 2.3595 1.0000
18.3000 1.0206 1.0000
18.3100 1.9614 1.0000
18.3200 1.9877 1.0000
18.3300 0.0000 1.0000
18.3400 3.3922 1.0000
18.3500 3.3388 1.0000
18.3600 2.0343 1.0000
18.3700 2.3295 1.0000
18.3800 5.4449 1.0000
18.3900 2.3795 1.0000
18.4000 0.6700 1.0000
18.4100 2.0168 1.0000
18.4200 3.0242 1.0000
18.4300 2.3344 1.0000
18.4400 2.0354 1.0000
18.4500 0.0000 1.0000
18.4600 3.9990 1.0000
18.4700 3.9511 1.0000
18.4800 1.0054 1.0000
18.4900 3.0890 1.0000
18.5000 4.2863 1.0000
18.5100 2.0731 1.0000
18.5200 1.3586 1.0000
18.5300 2.0092 1.0000
18.5400 4.3257 1.0000
18.5500 1.3290 1.0000
18.5600 5.0300 1.0000
18.5700 0.3218 1.0000
18.5800 2.2918 1.0000
18.5900 3.0872 1.0000
18.6000 2.0182 1.0000
18.6100 0.9707 1.0000
18.6200 1.0054 1.0000
18.6300 0.9643 1.0000
18.6400 3.0324 1.0000
18.6500 1.0013 1.0000
18.6600 2.3128 1.0000
18.6700 2.9799 1.0000
18.6800 0.3211 1.0000
18.6900 1.9886 1.0000
18.7000 0.0000 1.0000
18.7100 7.4283 1.0000
18.7200 1.0045 1.0000
18.7300 0.3418 1.0000
18.7400 3.8719 1.0000
18.7500 1.3191 1.0000
18.7600 0.3274 1.0000
18.7700 1.9449 1.0000
18.7800 4.0565 1.0000
18.7900 0.9937 1.0000
18.8000 2.5334 1.0000
18.8100 0.0000 1.0000
18.8200 4.0480 1.0000
18.8300 1.9705 1.0000
18.8400 2.4042 1.0000
18.8500 0.0000 1.0000
18.8600 1.0093 1.0000
18.8700 0.9894 1.0000
18.8800 0.9954 1.0000
18.8900 2.9836 1.0000
18.9000 2.0468 1.0000
18.9100 0.9657 1.0000
18.9200 1.3725 1.0000
18.9300 0.0000 1.0000
18.9400 0.0000 1.0000
18.9500 1.9733 1.0000
18.9600 3.6277 1.0000
18.9700 1.3228 1.0000
18.9800 2.3117 1.0000
18.9900 1.9843 1.0000
19.0000 2.0461 1.0000
19.0100 1.0269 1.0000
19.0200 2.0235 1.0000
19.0300 0.0000 1.0000
19.0400 3.0813 1.0000
19.0500 0.9884 1.0000
19.0600 5.3445 1.0000
19.0700 0.0000 1.0000
19.0800 0.0000 1.0000
19.0900 1.9976 1.0000
19.1000 0.6487 1.0000
19.1100 2.0019 1.0000
19.1200 1.3301 1.0000
19.1300 0.9980 1.0000
19.1400 2.3217 1.0000
19.1500 2.9767 1.0000
19.1600 3.3056 1.0000
19.1700 0.0000 1.0000
19.1800 2.0595 1.0000
19.1900 2.2991 1.0000
19.2000 1.0206 1.0000
19.2100 0.9626 1.0000
19.2200 0.0000 1.0000
19.2300 3.0095 1.0000
19.2400 0.0000 1.0000
19.2500 4.3695 1.0000
19.2600 2.6768 1.0000
19.2700 1.3683 1.0000
19.2800 1.9998 1.0000
19.2900 0.9822 1.0000
19.3000 1.0133 1.0000
19.3100 2.9123 1.0000
19.3200 2.4539 1.0000
19.3300 0.3330 1.0000
19.3400 2.0311 1.0000
19.3500 3.5561 1.0000
19.3600 0.9940 1.0000
19.3700 2.3906 1.0000
19.3800 0.0000 1.0000
19.3900 0.9572 1.0000
19.4000 0.9852 1.0000
19.4100 2.3535 1.0000
19.4200 4.7486 1.0000
19.4300 1.0031 1.0000
19.4400 0.0000 1.0000
19.4500 4.4064 1.0000
19.4600 3.0341 1.0000
19.4700 2.9696 1.0000
19.4800 0.9986 1.0000
19.4900 0.0000 1.0000
19.5000 0.9613 1.0000
19.5100 0.9994 1.0000
19.5200 1.0299 1.0000
19.5300 1.6609 1.0000
19.5400 1.6747 1.0000
19.5500 2.0133 1.0000
19.5600 0.3461 1.0000
19.5700 0.9822 1.0000
19.5800 0.0000 1.0000
19.5900 0.9899 1.0000
19.6000 3.0078 1.0000
19.6100 2.0262 1.0000
19.6200 3.0093 1.0000
19.6300 3.8380 1.0000
19.6400 3.5065 1.0000
19.6500 0.0000 1.0000
19.6600 1.3394 1.0000
19.6700 2.0696 1.0000
19.6800 1.3443 1.0000
19.6900 1.9358 1.0000
19.7000 2.3422 1.0000
19.7100 2.3219 1.0000
19.7200 2.0585 1.0000
19.7300 2.2766 1.0000
19.7400 2.7182 1.0000
19.7500 2.0259 1.0000
19.7600 2.3176 1.0000
19.7700 4.3916 1.0000
19.7800 0.9974 1.0000
19.7900 3.3153 1.0000
19.8000 2.9879 1.0000
19.8100 1.9751 1.0000
19.8200 3.3262 1.0000
19.8300 0.0000 1.0000
19.8400 3.0195 1.0000
19.8500 1.3436 1.0000
19.8600 1.3238 1.0000
19.8700 1.6548 1.0000
19.8800 0.0000 1.0000
19.8900 2.3702 1.0000
19.9000 4.3383 1.0000
19.9100 3.3721 1.0000
19.9200 0.0000 1.0000
19.9300 0.0000 1.0000
19.9400 0.9783 1.0000
19.9500 0.0000 1.0000
19.9600 2.0639 1.0000
19.9700 2.0100 1.0000
19.9800 0.0000 1.0000
19.9900 0.0000 1.0000
20.0000 0.0000 1.0000
20.0100 1.9821 1.0000
20.0200 1.2840 1.0000
20.0300 3.3963 1.0000
20.0400 1.2937 1.0000
20.0500 2.9990 1.0000
20.0600 3.1444 1.0000
20.0700 2.3380 1.0000
20.0800 1.2891 1.0000
20.0900 1.9571 1.0000
20.1000 1.0300 1.0000
20.1100 5.0064 1.0000
20.1200 0.9541 1.0000
20.1300 1.9650 1.0000
20.1400 3.9459 1.0000
20.1500 1.9758 1.0000
20.1600 4.0573 1.0000
20.1700 1.3463 1.0000
20.1800 4.3723 1.0000
20.1900 1.0287 1.0000
20.2000 0.9792 1.0000
20.2100 2.3800 1.0000
20.2200 2.0672 1.0000
20.2300 0.0000 1.0000
20.2400 4.0804 1.0000
20.2500 1.3317 1.0000
20.2600 0.9861 1.0000
20.2700 3.8623 1.0000
20.2800 1.0089 1.0000
20.2900 0.0000 1.0000
20.3000 2.1022 1.0000
20.3100 2.0211 1.0000
20.3200 0.0000 1.0000
20.3300 0.0000 1.0000
20.3400 0.9923 1.0000
20.3500 3.0464 1.0000
20.3600 0.0000 1.0000
20.3700 1.0218 1.0000
20.3800 0.9884 1.0000
20.3900 0.0000 1.0000
20.4000 0.0000 1.0000
20.4100 0.0000 1.0000
20.4200 4.0925 1.0000
20.4300 0.3262 1.0000
20.4400 1.9729 1.0000
20.4500 2.3682 1.0000
20.4600 2.0161 1.0000
20.4700 0.3236 1.0000
20.4800 2.0211 1.0000
20.4900 1.2989 1.0000
20.5000 0.0000 1.0000
20.5100 2.0106 1.0000
20.5200 3.0731 1.0000
20.5300 0.9999 1.0000
20.5400 2.8850 1.0000
20.5500 0.3319 1.0000
20.5600 0.3220 1.0000
20.5700 0.3271 1.0000
20.5800 1.3398 1.0000
20.5900 1.3239 1.0000
20.6000 2.0382 1.0000
20.6100 1.3177 1.0000
20.6200 2.0756 1.0000
20.6300 0.9832 1.0000
20.6400 0.9720 1.0000
20.6500 3.0691 1.0000
20.6600 1.0558 1.0000
20.6700 0.9764 1.0000
20.6800 0.0000 1.0000
20.6900 0.9770 1.0000
20.7000 1.3967 1.0000
20.7100 1.0093 1.0000
20.7200 1.3458 1.0000
20.7300 0.0000 1.0000
20.7400 2.0247 1.0000
20.7500 1.0218 1.0000
20.7600 3.0225 1.0000
20.7700 0.3218 1.0000
20.7800 1.6485 1.0000
20.7900 1.9824 1.0000
20.8000 2.2765 1.0000
20.8100 2.3973 1.0000
20.8200 0.0000 1.0000
20.8300 0.3240 1.0000
20.8400 0.3407 1.0000
20.8500 0.3333 1.0000
20.8600 0.9826 1.0000
20.8700 1.0073 1.0000
20.8800 2.3574 1.0000
20.8900 1.7051 1.0000
20.9000 1.3383 1.0000
20.9100 0.0000 1.0000
20.9200 1.6346 1.0000
20.9300 2.0406 1.0000
20.9400 1.3088 1.0000
20.9500 2.3658 1.0000
20.9600 0.9875 1.0000
20.9700 2.3104 1.0000
20.9800 2.0140 1.0000
20.9900 2.2997 1.0000
21.0000 2.9575 1.0000
21.0100 0.9914 1.0000
21.0200 1.3463 1.0000
21.0300 1.4120 1.0000
21.0400 0.0000 1.0000
21.0500 2.3158 1.0000
21.0600 1.0237 1.0000
21.0700 0.0000 1.0000
21.0800 2.0326 1.0000
21.0900 3.9979 1.0000
21.1000 1.0320 1.0000
21.1100 2.0822 1.0000
21.1200 1.6697 1.0000
21.1300 1.9632 1.0000
21.1400 4.0893 1.0000
21.1500 0.0000 1.0000
21.1600 2.0235 1.0000
21.1700 3.9533 1.0000
21.1800 0.9644 1.0000
21.1900 0.9973 1.0000
21.2000 2.0324 1.0000
21.2100 1.6644 1.0000
21.2200 4.4532 1.0000
21.2300 1.9636 1.0000
21.2400 1.0207 1.0000
21.2500 1.0402 1.0000
21.2600 2.0328 1.0000
21.2700 1.3596 1.0000
21.2800 1.0113 1.0000
21.2900 1.3142 1.0000
21.3000 2.0647 1.0000
21.3100 4.0584 1.0000
21.3200 1.0122 1.0000
21.3300 2.9672 1.0000
21.3400 1.2800 1.0000
21.3500 0.9783 1.0000
21.3600 3.3345 1.0000
21.3700 0.3220 1.0000
21.3800 1.0109 1.0000
21.3900 0.9960 1.0000
21.4000 2.5734 1.0000
21.4100 4.9414 1.0000
21.4200 2.3547 1.0000
21.4300 0.3281 1.0000
21.4400 4.3112 1.0000
21.4500 1.3817 1.0000
21.4600 0.3249 1.0000
21.4700 2.0991 1.0000
21.4800 0.3356 1.0000
21.4900 3.0578 1.0000
21.5000 3.3021 1.0000
21.5100 0.3218 1.0000
21.5200 1.9661 1.0000
21.5300 1.9209 1.0000
21.5400 1.9915 1.0000
21.5500 2.3361 1.0000
21.5600 3.3336 1.0000
21.5700 0.0000 1.0000
21.5800 1.0147 1.0000
21.5900 1.9942 1.0000
21.6000 2.3855 1.0000
21.6100 2.3451 1.0000
21.6200 3.4066 1.0000
21.6300 2.0125 1.0000
21.6400 1.0063 1.0000
21.6500 1.6289 1.0000
21.6600 0.0000 1.0000
21.6700 1.6266 1.0000
21.6800 0.9608 1.0000
21.6900 0.0000 1.0000
21.7000 1.0244 1.0000
21.7100 1.3161 1.0000
21.7200 0.0000 1.0000
21.7300 2.0319 1.0000
21.7400 2.3030 1.0000
21.7500 0.3382 1.0000
21.7600 1.2949 1.0000
21.7700 0.0000 1.0000
21.7800 1.3641 1.0000
21.7900 6.0691 1.0000
21.8000 2.3336 1.0000
21.8100 2.9682 1.0000
21.8200 2.0267 1.0000
21.8300 0.9979 1.0000
21.8400 2.2720 1.0000
21.8500 1.5172 1.0000
21.8600 2.0903 1.0000
21.8700 1.9780 1.0000
21.8800 0.0000 1.0000
21.8900 3.0968 1.0000
21.9000 2.0300 1.0000
21.9100 1.3078 1.0000
21.9200 0.0000 1.0000
21.9300 0.9889 1.0000
21.9400 0.0000 1.0000
21.9500 2.3778 1.0000
21.9600 0.3273 1.0000
21.9700 1.9968 1.0000
21.9800 0.9761 1.0000
21.9900 1.9815 1.0000
22.0000 1.0074 1.0000
22.0100 0.0000 1.0000
22.0200 1.0002 1.0000
22.0300 1.0159 1.0000
22.0400 1.9998 1.0000
22.0500 4.7533 1.0000
22.0600 0.3220 1.0000
22.0700 1.9932 1.0000
22.0800 1.0157 1.0000
22.0900 0.6602 1.0000
22.1000 1.9827 1.0000
22.1100 1.6631 1.0000
22.1200 1.0247 1.0000
22.1300 0.0000 1.0000
22.1400 1.9748 1.0000
22.1500 1.0151 1.0000
22.1600 0.0000 1.0000
22.1700 0.0000 1.0000
22.1800 1.9261 1.0000
22.1900 1.9810 1.0000
22.2000 3.0911 1.0000
22.2100 2.0081 1.0000
22.2200 0.0000 1.0000
22.2300 1.9882 1.0000
22.2400 0.0000 1.0000
22.2500 2.0653 1.0000
22.2600 3.0529 1.0000
22.2700 1.3861 1.0000
22.2800 0.0000 1.0000
22.2900 0.3236 1.0000
22.3000 2.3457 1.0000
22.3100 1.9817 1.0000
22.3200 0.3419 1.0000
22.3300 2.3368 1.0000
22.3400 2.0961 1.0000
22.3500 2.0491 1.0000
22.3600 2.2945 1.0000
22.3700 1.0401 1.0000
22.3800 1.0093 1.0000
22.3900 3.1106 1.0000
22.4000 1.9858 1.0000
22.4100 0.0000 1.0000
22.4200 3.0438 1.0000
22.4300 0.9902 1.0000
22.4400 1.3311 1.0000
22.4500 1.9799 1.0000
22.4600 2.3600 1.0000
22.4700 0.9492 1.0000
22.4800 1.0093 1.0000
22.4900 1.3427 1.0000
22.5000 0.9802 1.0000
22.5100 1.0074 1.0000
22.5200 1.0527 1.0000
22.5300 0.3383 1.0000
22.5400 1.3296 1.0000
22.5500 3.7262 1.0000
22.5600 0.0000 1.0000
22.5700 2.4625 1.0000
22.5800 0.0000 1.0000
22.5900 2.3201 1.0000
22.6000 1.0266 1.0000
22.6100 1.9817 1.0000
22.6200 3.0455 1.0000
22.6300 0.0000 1.0000
22.6400 1.0132 1.0000
22.6500 0.6538 1.0000
22.6600 0.9958 1.0000
22.6700 2.0109 1.0000
22.6800 3.3805 1.0000
22.6900 1.0197 1.0000
22.7000 3.9923 1.0000
22.7100 0.0000 1.0000
22.7200 0.3383 1.0000
22.7300 1.0361 1.0000
22.7400 0.9749 1.0000
22.7500 1.2901 1.0000
22.7600 1.9656 1.0000
22.7700 0.3211 1.0000
22.7800 0.0000 1.0000
22.7900 2.0376 1.0000
22.8000 3.1508 1.0000
22.8100 1.0502 1.0000
22.8200 3.1090 1.0000
22.8300 0.9639 1.0000
22.8400 1.3999 1.0000
22.8500 2.9879 1.0000
22.8600 1.0114 1.0000
22.8700 3.3061 1.0000
22.8800 1.0001 1.0000
22.8900 2.0340 1.0000
22.9000 0.1433 1.0000
22.9100 2.3689 1.0000
22.9200 2.0301 1.0000
22.9300 1.9844 1.0000
22.9400 0.0000 1.0000
22.9500 0.0000 1.0000
22.9600 0.0000 1.0000
22.9700 2.0203 1.0000
22.9800 1.0287 1.0000
22.9900 2.0163 1.0000
23.0000 2.0075 1.0000
23.0100 2.0470 1.0000
23.0200 0.3350 1.0000
23.0300 1.0679 1.0000
23.0400 1.9832 1.0000
23.0500 1.3308 1.0000
23.0600 0.0000 1.0000
23.0700 1.0247 1.0000
23.0800 0.3319 1.0000
23.0900 0.9863 1.0000
23.1000 3.0556 1.0000
23.1100 3.0295 1.0000
23.1200 0.0000 1.0000
23.1300 1.4910 1.0000
23.1400 0.3345 1.0000
23.1500 0.9639 1.0000
23.1600 1.0052 1.0000
23.1700 1.0042 1.0000
23.1800 0.0000 1.0000
23.1900 3.0534 1.0000
23.2000 1.0037 1.0000
23.2100 0.0000 1.0000
23.2200 4.2951 1.0000
23.2300 1.3238 1.0000
23.2400 0.9832 1.0000
23.2500 2.9780 1.0000
23.2600 2.3193 1.0000
23.2700 0.6651 1.0000
23.2800 0.0000 1.0000
23.2900 2.0458 1.0000
23.3000 0.0000 1.0000
23.3100 0.0000 1.0000
23.3200 0.3236 1.0000
23.3300 0.9633 1.0000
23.3400 1.3289 1.0000
23.3500 2.0146 1.0000
23.3600 1.0079 1.0000
23.3700 1.3668 1.0000
23.3800 2.0854 1.0000
23.3900 1.0014 1.0000
23.4000 0.9999 1.0000
23.4100 2.0260 1.0000
23.4200 1.0080 1.0000
23.4300 1.0669 1.0000
23.4400 0.9861 1.0000
23.4500 1.9478 1.0000
23.4600 2.0253 1.0000
23.4700 2.9528 1.0000
23.4800 0.0000 1.0000
23.4900 0.9875 1.0000
23.5000 0.9608 1.0000
23.5100 1.0197 1.0000
23.5200 1.0152 1.0000
23.5300 2.9528 1.0000
23.5400 0.0000 1.0000
23.5500 2.0747 1.0000
23.5600 1.0143 1.0000
23.5700 3.0026 1.0000
23.5800 0.0000 1.0000
23.5900 4.0643 1.0000
23.6000 0.0000 1.0000
23.6100 0.9839 1.0000
23.6200 1.0476 1.0000
23.6300 0.3481 1.0000
23.6400 2.0325 1.0000
23.6500 2.0281 1.0000
23.6600 0.3481 1.0000
23.6700 0.3296 1.0000
23.6800 0.0000 1.0000
23.6900 1.9628 1.0000
23.7000 1.9703 1.0000
23.7100 0.3397 1.0000
23.7200 0.0000 1.0000
23.7300 1.9714 1.0000
23.7400 0.0000 1.0000
23.7500 0.9897 1.0000
23.7600 3.0207 1.0000
23.7700 3.0778 1.0000
23.7800 4.3924 1.0000
23.7900 0.0000 1.0000
23.8000 2.0092 1.0000
23.8100 0.0000 1.0000
23.8200 0.3281 1.0000
23.8300 1.9860 1.0000
23.8400 1.0293 1.0000
23.8500 2.1796 1.0000
23.8600 0.0000 1.0000
23.8700 3.2766 1.0000
23.8800 4.3472 1.0000
23.8900 0.0000 1.0000
23.9000 0.9991 1.0000
23.9100 0.9986 1.0000
23.9200 0.9792 1.0000
23.9300 0.3258 1.0000
23.9400 1.9794 1.0000
23.9500 0.0000 1.0000
23.9600 0.0000 1.0000
23.9700 1.0332 1.0000
23.9800 0.9478 1.0000
23.9900 4.3436 1.0000
24.0000 1.9248 1.0000
24.0100 1.0034 1.0000
24.0200 4.0207 1.0000
24.0300 0.0000 1.0000
24.0400 4.0930 1.0000
24.0500 2.2883 1.0000
24.0600 0.6652 1.0000
24.0700 1.0174 1.0000
24.0800 4.0531 1.0000
24.0900 0.9792 1.0000
24.1000 0.3266 1.0000
24.1100 1.0050 1.0000
24.1200 0.0000 1.0000
24.1300 0.0000 1.0000
24.1400 0.0000 1.0000
24.1500 0.6682 1.0000
24.1600 0.0000 1.0000
24.1700 0.0000 1.0000
24.1800 5.6447 1.0000
24.1900 2.9828 1.0000
24.2000 1.9730 1.0000
24.2100 1.0218 1.0000
24.2200 2.0228 1.0000
24.2300 0.9665 1.0000
24.2400 0.0000 1.0000
24.2500 1.9734 1.0000
24.2600 3.7904 1.0000
24.2700 1.0096 1.0000
24.2800 0.3403 1.0000
24.2900 4.0134 1.0000
24.3000 0.0000 1.0000
24.3100 2.3186 1.0000
24.3200 0.0000 1.0000
24.3300 2.0245 1.0000
24.3400 2.0178 1.0000
24.3500 0.0000 1.0000
24.3600 1.0687 1.0000
24.3700 4.9054 1.0000
24.3800 0.3382 1.0000
24.3900 0.9852 1.0000
24.4000 0.0000 1.0000
24.4100 1.0212 1.0000
24.4200 0.0000 1.0000
24.4300 2.3764 1.0000
24.4400 0.0000 1.0000
24.4500 1.9730 1.0000
24.4600 0.9843 1.0000
24.4700 0.0000 1.0000
24.4800 1.0075 1.0000
24.4900 0.3290 1.0000
24.5000 0.0000 1.0000
24.5100 0.0000 1.0000
24.5200 1.3965 1.0000
24.5300 3.0052 1.0000
24.5400 0.0000 1.0000
24.5500 0.0000 1.0000
24.5600 1.0675 1.0000
24.5700 0.3333 1.0000
24.5800 0.0000 1.0000
24.5900 0.0000 1.0000
24.6000 1.0130 1.0000
24.6100 3.3965 1.0000
24.6200 1.0396 1.0000
24.6300 1.0193 1.0000
24.6400 2.3351 1.0000
24.6500 0.0000 1.0000
24.6600 0.9787 1.0000
24.6700 0.3547 1.0000
24.6800 0.9690 1.0000
24.6900 1.9934 1.0000
24.7000 0.0000 1.0000
24.7100 0.0000 1.0000
24.7200 1.9465 1.0000
24.7300 0.0000 1.0000
24.7400 0.0000 1.0000
24.7500 4.0882 1.0000
24.7600 1.0197 1.0000
24.7700 1.9521 1.0000
24.7800 1.0030 1.0000
24.7900 1.0319 1.0000
24.8000 1.0357 1.0000
24.8100 0.9919 1.0000
24.8200 2.1078 1.0000
24.8300 1.3236 1.0000
24.8400 0.9870 1.0000
24.8500 2.0603 1.0000
24.8600 0.0000 1.0000
24.8700 0.9840 1.0000
24.8800 1.6766 1.0000
24.8900 0.0000 1.0000
24.9000 1.0452 1.0000
24.9100 0.0000 1.0000
24.9200 0.3211 1.0000
24.9300 2.0276 1.0000
24.9400 1.0393 1.0000
24.9500 1.3194 1.0000
24.9600 1.0537 1.0000
24.9700 1.9776 1.0000
24.9800 0.6522 1.0000
24.9900 0.0000 1.0000
25.0000 0.9501 1.0000
25.0100 0.0000 1.0000
25.0200 1.0462 1.0000
25.0300 1.9462 1.0000
25.0400 0.3382 1.0000
25.0500 1.0181 1.0000
25.0600 2.3284 1.0000
25.0700 1.0330 1.0000
25.0800 3.3227 1.0000
25.0900 2.0105 1.0000
25.1000 2.0119 1.0000
25.1100 2.6653 1.0000
25.1200 0.3262 1.0000
25.1300 1.0114 1.0000
25.1400 1.9436 1.0000
25.1500 2.9524 1.0000
25.1600 0.9768 1.0000
25.1700 1.0206 1.0000
25.1800 2.0387 1.0000
25.1900 0.0000 1.0000
25.2000 1.9918 1.0000
25.2100 0.9969 1.0000
25.2200 2.0260 1.0000
25.2300 0.0000 1.0000
25.2400 1.9869 1.0000
25.2500 1.9691 1.0000
25.2600 2.4120 1.0000
25.2700 0.0000 1.0000
25.2800 1.0601 1.0000
25.2900 0.9980 1.0000
25.3000 0.0000 1.0000
25.3100 2.0394 1.0000
25.3200 2.2847 1.0000
25.3300 0.9687 1.0000
25.3400 1.3623 1.0000
25.3500 1.0218 1.0000
25.3600 0.0000 1.0000
25.3700 1.9770 1.0000
25.3800 0.9758 1.0000
25.3900 2.0274 1.0000
25.4000 0.3396 1.0000
25.4100 0.0000 1.0000
25.4200 1.0234 1.0000
25.4300 1.9830 1.0000
25.4400 2.0441 1.0000
25.4500 3.0223 1.0000
25.4600 0.0000 1.0000
25.4700 0.0000 1.0000
25.4800 0.0000 1.0000
25.4900 0.0000 1.0000
25.5000 0.0000 1.0000
25.5100 1.5300 1.0000
25.5200 2.0093 1.0000
25.5300 1.9669 1.0000
25.5400 0.0000 1.0000
25.5500 3.3554 1.0000
25.5600 1.9800 1.0000
25.5700 1.0090 1.0000
25.5800 0.0000 1.0000
25.5900 3.0522 1.0000
25.6000 2.0927 1.0000
25.6100 0.3396 1.0000
25.6200 0.0000 1.0000
25.6300 1.0295 1.0000
25.6400 1.7213 1.0000
25.6500 0.3455 1.0000
25.6600 0.0000 1.0000
25.6700 1.3111 1.0000
25.6800 1.3329 1.0000
25.6900 3.3800 1.0000
25.7000 1.0048 1.0000
25.7100 0.0000 1.0000
25.7200 1.0242 1.0000
25.7300 0.0000 1.0000
25.7400 1.0004 1.0000
25.7500 2.0609 1.0000
25.7600 1.0372 1.0000
25.7700 2.0213 1.0000
25.7800 3.3463 1.0000
25.7900 2.0147 1.0000
25.8000 2.0525 1.0000
25.8100 1.0104 1.0000
25.8200 0.0000 1.0000
25.8300 0.3306 1.0000
25.8400 2.0299 1.0000
25.8500 0.9726 1.0000
25.8600 0.0000 1.0000
25.8700 0.3211 1.0000
25.8800 0.0000 1.0000
25.8900 2.0559 1.0000
25.9000 1.3445 1.0000
25.9100 0.0000 1.0000
25.9200 1.0015 1.0000
25.9300 2.2760 1.0000
25.9400 2.6549 1.0000
25.9500 1.0307 1.0000
25.9600 3.2998 1.0000
25.9700 1.0056 1.0000
25.9800 1.3157 1.0000
25.9900 1.0096 1.0000
26.0000 0.0000 1.0000
26.0100 0.0000 1.0000
26.0200 0.0000 1.0000
26.0300 0.0000 1.0000
26.0400 2.9412 1.0000
26.0500 0.3547 1.0000
26.0600 1.0015 1.0000
26.0700 2.0023 1.0000
26.0800 0.0000 1.0000
26.0900 0.0000 1.0000
26.1000 1.3280 1.0000
26.1100 1.3661 1.0000
26.1200 0.0000 1.0000
26.1300 0.0000 1.0000
26.1400 0.0000 1.0000
26.1500 3.1017 1.0000
26.1600 4.4544 1.0000
26.1700 0.0000 1.0000
26.1800 0.0000 1.0000
26.1900 1.3324 1.0000
26.2000 0.9768 1.0000
26.2100 1.0298 1.0000
26.2200 1.3573 1.0000
26.2300 0.9733 1.0000
26.2400 1.0603 1.0000
26.2500 0.0000 1.0000
26.2600 3.0768 1.0000
26.2700 0.0000 1.0000
26.2800 0.0000 1.0000
26.2900 0.8876 1.0000
26.3000 1.0523 1.0000
26.3100 1.3047 1.0000
26.3200 2.0256 1.0000
26.3300 1.0345 1.0000
26.3400 2.0022 1.0000
26.3500 0.0000 1.0000
26.3600 1.2634 1.0000
26.3700 1.9921 1.0000
26.3800 0.9985 1.0000
26.3900 2.0874 1.0000
26.4000 1.9770 1.0000
26.4100 1.0203 1.0000
26.4200 0.0000 1.0000
26.4300 3.0032 1.0000
26.4400 3.3454 1.0000
26.4500 1.3223 1.0000
26.4600 1.3113 1.0000
26.4700 1.3124 1.0000
26.4800 0.0000 1.0000
26.4900 1.4955 1.0000
26.5000 0.9889 1.0000
26.5100 1.9872 1.0000
26.5200 0.0000 1.0000
26.5300 0.0000 1.0000
26.5400 1.9733 1.0000
26.5500 1.6464 1.0000
26.5600 0.0000 1.0000
26.5700 1.0779 1.0000
26.5800 0.0000 1.0000
26.5900 1.9963 1.0000
26.6000 3.0959 1.0000
26.6100 2.0375 1.0000
26.6200 1.9602 1.0000
26.6300 0.0000 1.0000
26.6400 1.3625 1.0000
26.6500 1.3554 1.0000
26.6600 0.0000 1.0000
26.6700 0.9822 1.0000
26.6800 1.3090 1.0000
26.6900 0.9706 1.0000
26.7000 1.4191 1.0000
26.7100 0.3253 1.0000
26.7200 0.0000 1.0000
26.7300 0.0000 1.0000
26.7400 1.3174 1.0000
26.7500 0.0000 1.0000
26.7600 0.3273 1.0000
26.7700 0.0000 1.0000
26.7800 2.0244 1.0000
26.7900 0.0000 1.0000
26.8000 0.9989 1.0000
26.8100 0.0000 1.0000
26.8200 0.0000 1.0000
26.8300 0.0000 1.0000
26.8400 0.0000 1.0000
26.8500 0.0000 1.0000
26.8600 0.0000 1.0000
26.8700 0.0000 1.0000
26.8800 1.9927 1.0000
26.8900 1.9970 1.0000
26.9000 2.5634 1.0000
26.9100 1.0710 1.0000
26.9200 0.9843 1.0000
26.9300 0.0000 1.0000
26.9400 1.0093 1.0000
26.9500 1.0721 1.0000
26.9600 0.0000 1.0000
26.9700 0.9992 1.0000
26.9800 0.0000 1.0000
26.9900 0.9844 1.0000
27.0000 1.0599 1.0000
27.0100 1.3612 1.0000
27.0200 3.0224 1.0000
27.0300 0.0000 1.0000
27.0400 0.0000 1.0000
27.0500 0.0000 1.0000
27.0600 0.0000 1.0000
27.0700 2.0225 1.0000
27.0800 0.3356 1.0000
27.0900 0.9812 1.0000
27.1000 0.0000 1.0000
27.1100 1.3664 1.0000
27.1200 0.0000 1.0000
27.1300 0.0000 1.0000
27.1400 2.0614 1.0000
27.1500 1.0877 1.0000
27.1600 0.0000 1.0000
27.1700 0.0000 1.0000
27.1800 0.9894 1.0000
27.1900 0.0000 1.0000
27.2000 1.0090 1.0000
27.2100 2.3146 1.0000
27.2200 0.9669 1.0000
27.2300 1.2797 1.0000
27.2400 0.0000 1.0000
27.2500 1.4334 1.0000
27.2600 0.9768 1.0000
27.2700 2.0682 1.0000
27.2800 0.0000 1.0000
27.2900 1.0502 1.0000
27.3000 0.9886 1.0000
27.3100 0.0000 1.0000
27.3200 1.0434 1.0000
27.3300 0.9958 1.0000
27.3400 1.3359 1.0000
27.3500 2.0230 1.0000
27.3600 2.0500 1.0000
27.3700 0.3253 1.0000
27.3800 3.0531 1.0000
27.3900 0.0000 1.0000
27.4000 2.0165 1.0000
27.4100 0.3236 1.0000
27.4200 3.9132 1.0000
27.4300 0.0000 1.0000
27.4400 0.3279 1.0000
27.4500 0.9783 1.0000
27.4600 3.1011 1.0000
27.4700 2.3454 1.0000
27.4800 1.0745 1.0000
27.4900 0.9749 1.0000
27.5000 0.0000 1.0000
27.5100 0.9396 1.0000
27.5200 0.9595 1.0000
27.5300 1.2823 1.0000
27.5400 0.3344 1.0000
27.5500 0.3314 1.0000
27.5600 0.9988 1.0000
27.5700 3.1202 1.0000
27.5800 2.0754 1.0000
27.5900 1.3642 1.0000
27.6000 1.0191 1.0000
27.6100 0.0000 1.0000
27.6200 3.0734 1.0000
27.6300 1.6885 1.0000
27.6400 0.3253 1.0000
27.6500 0.0000 1.0000
27.6600 0.9832 1.0000
27.6700 1.3817 1.0000
27.6800 1.0048 1.0000
27.6900 2.0042 1.0000
27.7000 0.9517 1.0000
27.7100 1.9603 1.0000
27.7200 2.9975 1.0000
27.7300 3.4284 1.0000
27.7400 0.3396 1.0000
27.7500 0.0000 1.0000
27.7600 0.3314 1.0000
27.7700 1.0174 1.0000
27.7800 1.0054 1.0000
27.7900 1.3867 1.0000
27.8000 0.0000 1.0000
27.8100 2.4199 1.0000
27.8200 0.9683 1.0000
27.8300 2.2830 1.0000
27.8400 2.9664 1.0000
27.8500 2.0669 1.0000
27.8600 3.3826 1.0000
27.8700 0.9914 1.0000
27.8800 0.9811 1.0000
27.8900 2.9991 1.0000
27.9000 1.9969 1.0000
27.9100 0.0000 1.0000
27.9200 0.0000 1.0000
27.9300 0.0000 1.0000
27.9400 1.0068 1.0000
27.9500 2.4360 1.0000
27.9600 2.0291 1.0000
27.9700 1.0572 1.0000
27.9800 2.0512 1.0000
27.9900 1.0389 1.0000
28.0000 0.0000 1.0000
28.0100 1.0267 1.0000
28.0200 1.3372 1.0000
28.0300 0.9843 1.0000
28.0400 2.0177 1.0000
28.0500 0.0000 1.0000
28.0600 1.2711 1.0000
28.0700 2.0239 1.0000
28.0800 1.9361 1.0000
28.0900 1.0134 1.0000
28.1000 0.0000 1.0000
28.1100 1.0130 1.0000
28.1200 0.0000 1.0000
28.1300 0.3407 1.0000
28.1400 0.3320 1.0000
28.1500 2.8759 1.0000
28.1600 1.0211 1.0000
28.1700 0.0000 1.0000
28.1800 0.9944 1.0000
28.1900 3.0840 1.0000
28.2000 2.0330 1.0000
28.2100 2.0428 1.0000
28.2200 2.6300 1.0000
28.2300 2.1160 1.0000
28.2400 2.0172 1.0000
28.2500 4.0038 1.0000
28.2600 1.0779 1.0000
28.2700 0.3147 1.0000
28.2800 1.0128 1.0000
28.2900 0.9074 1.0000
28.3000 1.3692 1.0000
28.3100 0.6540 1.0000
28.3200 0.0000 1.0000
28.3300 0.9894 1.0000
28.3400 1.3475 1.0000
28.3500 1.0401 1.0000
28.3600 0.3408 1.0000
28.3700 0.3496 1.0000
28.3800 0.9850 1.0000
28.3900 1.9543 1.0000
28.4000 0.0000 1.0000
28.4100 1.0096 1.0000
28.4200 2.0797 1.0000
28.4300 1.0388 1.0000
28.4400 1.3273 1.0000
28.4500 0.9613 1.0000
28.4600 0.3271 1.0000
28.4700 0.3288 1.0000
28.4800 0.0000 1.0000
28.4900 0.0000 1.0000
28.5000 0.0000 1.0000
28.5100 1.0322 1.0000
28.5200 2.0117 1.0000
28.5300 0.0000 1.0000
28.5400 0.9415 1.0000
28.5500 0.0000 1.0000
28.5600 0.9720 1.0000
28.5700 1.0006 1.0000
28.5800 0.9894 1.0000
28.5900 0.0000 1.0000
28.6000 1.0197 1.0000
28.6100 0.0000 1.0000
28.6200 0.0000 1.0000
28.6300 3.3403 1.0000
28.6400 0.0000 1.0000
28.6500 1.0295 1.0000
28.6600 1.2737 1.0000
28.6700 3.1471 1.0000
28.6800 0.0000 1.0000
28.6900 2.3037 1.0000
28.7000 4.7604 1.0000
28.7100 2.0202 1.0000
28.7200 0.0000 1.0000
28.7300 1.3654 1.0000
28.7400 0.0000 1.0000
28.7500 1.5284 1.0000
28.7600 3.2953 1.0000
28.7700 3.0831 1.0000
28.7800 0.0000 1.0000
28.7900 1.5204 1.0000
28.8000 1.0155 1.0000
28.8100 1.0045 1.0000
28.8200 1.9743 1.0000
28.8300 0.9810 1.0000
28.8400 1.0350 1.0000
28.8500 1.9553 1.0000
28.8600 1.0384 1.0000
28.8700 4.3393 1.0000
28.8800 0.9889 1.0000
28.8900 0.0000 1.0000
28.9000 0.0000 1.0000
28.9100 0.0000 1.0000
28.9200 1.0308 1.0000
28.9300 2.3336 1.0000
28.9400 0.0000 1.0000
28.9500 0.9861 1.0000
28.9600 1.0248 1.0000
28.9700 2.0153 1.0000
28.9800 1.0336 1.0000
28.9900 1.9725 1.0000
29.0000 1.0301 1.0000
29.0100 0.0000 1.0000
29.0200 0.3172 1.0000
29.0300 0.9700 1.0000
29.0400 0.0000 1.0000
29.0500 0.0000 1.0000
29.0600 0.0000 1.0000
29.0700 2.3378 1.0000
29.0800 0.0000 1.0000
29.0900 0.0000 1.0000
29.1000 0.0000 1.0000
29.1100 4.0425 1.0000
29.1200 1.0130 1.0000
29.1300 1.3305 1.0000
29.1400 1.9656 1.0000
29.1500 0.0000 1.0000
29.1600 0.9822 1.0000
29.1700 0.9630 1.0000
29.1800 0.9873 1.0000
29.1900 0.9998 1.0000
29.2000 2.3424 1.0000
29.2100 1.0069 1.0000
29.2200 1.0045 1.0000
29.2300 2.0234 1.0000
29.2400 1.0096 1.0000
29.2500 0.3290 1.0000
29.2600 2.0092 1.0000
29.2700 2.0898 1.0000
29.2800 1.0504 1.0000
29.2900 1.0481 1.0000
29.3000 1.0178 1.0000
29.3100 0.0000 1.0000
29.3200 1.3427 1.0000
29.3300 0.0000 1.0000
29.3400 1.0335 1.0000
29.3500 1.9825 1.0000
29.3600 1.9840 1.0000
29.3700 2.0716 1.0000
29.3800 0.0000 1.0000
29.3900 0.0000 1.0000
29.4000 1.0067 1.0000
29.4100 0.0000 1.0000
29.4200 0.0000 1.0000
29.4300 0.9952 1.0000
29.4400 1.7132 1.0000
29.4500 0.9460 1.0000
29.4600 1.0152 1.0000
29.4700 0.3276 1.0000
29.4800 0.9999 1.0000
29.4900 1.0310 1.0000
29.5000 0.9749 1.0000
29.5100 0.0000 1.0000
29.5200 1.0076 1.0000
29.5300 0.0000 1.0000
29.5400 2.0795 1.0000
29.5500 1.0558 1.0000
29.5600 2.0645 1.0000
29.5700 0.9945 1.0000
29.5800 3.0988 1.0000
29.5900 1.3509 1.0000
29.6000 0.3455 1.0000
29.6100 0.9691 1.0000
29.6200 0.0000 1.0000
29.6300 0.9927 1.0000
29.6400 1.0268 1.0000
29.6500 0.3402 1.0000
29.6600 0.0000 1.0000
29.6700 2.5175 1.0000
29.6800 1.0059 1.0000
29.6900 1.0327 1.0000
29.7000 1.0216 1.0000
29.7100 1.0467 1.0000
29.7200 2.4582 1.0000
29.7300 0.0000 1.0000
29.7400 0.9758 1.0000
29.7500 0.9971 1.0000
29.7600 0.9857 1.0000
29.7700 0.0000 1.0000
29.7800 3.9667 1.0000
29.7900 1.9892 1.0000
29.8000 0.3266 1.0000
29.8100 0.0000 1.0000
29.8200 1.0402 1.0000
29.8300 1.0097 1.0000
29.8400 0.0000 1.0000
29.8500 1.0186 1.0000
29.8600 2.0115 1.0000
29.8700 0.0000 1.0000
29.8800 0.0000 1.0000
29.8900 1.3249 1.0000
29.9000 2.0482 1.0000
29.9100 0.3240 1.0000
29.9200 3.0528 1.0000
29.9300 0.0000 1.0000
29.9400 1.0336 1.0000
29.9500 0.9974 1.0000
29.9600 0.0000 1.0000
29.9700 0.9843 1.0000
29.9800 0.0000 1.0000
29.9900 1.9897 1.0000
30.0000 0.0000 1.0000
30.0100 0.0000 1.0000
30.0200 1.0335 1.0000
30.0300 1.3319 1.0000
30.0400 1.0219 1.0000
30.0500 2.1362 1.0000
30.0600 1.0767 1.0000
30.0700 3.0220 1.0000
30.0800 0.3212 1.0000
30.0900 0.0000 1.0000
30.1000 0.0000 1.0000
30.1100 0.0000 1.0000
30.1200 2.0232 1.0000
30.1300 3.5503 1.0000
30.1400 0.9959 1.0000
30.1500 0.9768 1.0000
30.1600 0.0000 1.0000
30.1700 2.9426 1.0000
30.1800 0.0000 1.0000
30.1900 1.0257 1.0000
30.2000 2.3056 1.0000
30.2100 1.0158 1.0000
30.2200 1.9613 1.0000
30.2300 0.9894 1.0000
30.2400 0.9886 1.0000
30.2500 1.9898 1.0000
30.2600 1.0118 1.0000
30.2700 2.0599 1.0000
30.2800 0.0000 1.0000
30.2900 2.0057 1.0000
30.3000 0.9937 1.0000
30.3100 2.0290 1.0000
30.3200 0.9826 1.0000
30.3300 0.3173 1.0000
30.3400 3.0727 1.0000
30.3500 0.0000 1.0000
30.3600 1.0075 1.0000
30.3700 3.0167 1.0000
30.3800 1.0230 1.0000
30.3900 2.0049 1.0000
30.4000 1.3761 1.0000
30.4100 2.0519 1.0000
30.4200 0.0000 1.0000
30.4300 0.6628 1.0000
30.4400 0.0000 1.0000
30.4500 0.0000 1.0000
30.4600 0.0000 1.0000
30.4700 0.3218 1.0000
30.4800 1.0474 1.0000
30.4900 0.0000 1.0000
30.5000 0.0000 1.0000
30.5100 1.0328 1.0000
30.5200 0.0000 1.0000
30.5300 0.0000 1.0000
30.5400 3.0464 1.0000
30.5500 0.9613 1.0000
30.5600 0.0000 1.0000
30.5700 3.0710 1.0000
30.5800 0.0000 1.0000
30.5900 0.0000 1.0000
30.6000 1.0377 1.0000
30.6100 2.0610 1.0000
30.6200 4.0263 1.0000
30.6300 1.3186 1.0000
30.6400 2.0161 1.0000
30.6500 0.9565 1.0000
30.6600 0.0000 1.0000
30.6700 0.0000 1.0000
30.6800 1.0089 1.0000
30.6900 0.0000 1.0000
30.7000 0.0000 1.0000
30.7100 1.0035 1.0000
30.7200 0.0000 1.0000
30.7300 0.9934 1.0000
30.7400 1.9981 1.0000
30.7500 3.0932 1.0000
30.7600 3.0203 1.0000
30.7700 0.0000 1.0000
30.7800 0.9723 1.0000
30.7900 1.0485 1.0000
30.8000 0.0000 1.0000
30.8100 0.9621 1.0000
30.8200 1.3325 1.0000
30.8300 4.0545 1.0000
30.8400 0.9720 1.0000
30.8500 0.9620 1.0000
30.8600 2.4357 1.0000
30.8700 0.0000 1.0000
30.8800 0.3289 1.0000
30.8900 1.0487 1.0000
30.9000 3.3352 1.0000
30.9100 1.0076 1.0000
30.9200 0.0000 1.0000
30.9300 0.9846 1.0000
30.9400 0.3236 1.0000
30.9500 3.0197 1.0000
30.9600 0.0000 1.0000
30.9700 1.3166 1.0000
30.9800 0.0000 1.0000
30.9900 1.2003 1.0000
31.0000 1.3537 1.0000
31.0100 1.3337 1.0000
31.0200 0.0000 1.0000
31.0300 0.0000 1.0000
31.0400 0.6741 1.0000
31.0500 1.0041 1.0000
31.0600 0.9657 1.0000
31.0700 1.3562 1.0000
31.0800 2.0197 1.0000
31.0900 0.0000 1.0000
31.1000 1.0219 1.0000
31.1100 3.0364 1.0000
31.1200 0.0000 1.0000
31.1300 0.0000 1.0000
31.1400 0.9624 1.0000
31.1500 0.0000 1.0000
31.1600 0.0000 1.0000
31.1700 2.2851 1.0000
31.1800 1.0616 1.0000
31.1900 0.0000 1.0000
31.2000 1.3585 1.0000
31.2100 0.0000 1.0000
31.2200 0.0000 1.0000
31.2300 0.0000 1.0000
31.2400 0.9738 1.0000
31.2500 0.0000 1.0000
31.2600 3.3085 1.0000
31.2700 3.2947 1.0000
31.2800 1.0201 1.0000
31.2900 1.9601 1.0000
31.3000 0.0000 1.0000
31.3100 0.9676 1.0000
31.3200 1.9750 1.0000
31.3300 0.3218 1.0000
31.3400 2.9734 1.0000
31.3500 1.0709 1.0000
31.3600 0.0000 1.0000
31.3700 2.0591 1.0000
31.3800 0.0000 1.0000
31.3900 0.0000 1.0000
31.4000 0.0000 1.0000
31.4100 1.0434 1.0000
31.4200 0.0000 1.0000
31.4300 1.9978 1.0000
31.4400 0.9608 1.0000
31.4500 1.3644 1.0000
31.4600 0.0000 1.0000
31.4700 1.0393 1.0000
31.4800 0.9772 1.0000
31.4900 2.9658 1.0000
31.5000 1.0265 1.0000
31.5100 0.0000 1.0000
31.5200 0.0000 1.0000
31.5300 1.3026 1.0000
31.5400 1.0114 1.0000
31.5500 0.9934 1.0000
31.5600 1.3749 1.0000
31.5700 1.2762 1.0000
31.5800 0.3271 1.0000
31.5900 2.4020 1.0000
31.6000 3.0224 1.0000
31.6100 2.0681 1.0000
31.6200 1.0226 1.0000
31.6300 0.9822 1.0000
31.6400 1.3802 1.0000
31.6500 0.9997 1.0000
31.6600 0.0000 1.0000
31.6700 0.0000 1.0000
31.6800 0.3262 1.0000
31.6900 0.3264 1.0000
31.7000 1.0514 1.0000
31.7100 1.0345 1.0000
31.7200 1.0293 1.0000
31.7300 0.3356 1.0000
31.7400 0.9969 1.0000
31.7500 1.9401 1.0000
31.7600 1.2734 1.0000
31.7700 0.0000 1.0000
31.7800 0.9624 1.0000
31.7900 0.0000 1.0000
31.8000 0.0000 1.0000
31.8100 0.0000 1.0000
31.8200 0.0000 1.0000
31.8300 0.0000 1.0000
31.8400 0.0000 1.0000
31.8500 0.0000 1.0000
31.8600 1.4955 1.0000
31.8700 2.3103 1.0000
31.8800 0.0000 1.0000
31.8900 0.0000 1.0000
31.9000 0.0000 1.0000
31.9100 2.0379 1.0000
31.9200 0.9738 1.0000
31.9300 4.0754 1.0000
31.9400 0.0000 1.0000
31.9500 3.0530 1.0000
31.9600 1.9875 1.0000
31.9700 0.0000 1.0000
31.9800 1.0354 1.0000
31.9900 0.3330 1.0000
32.0000 0.0000 1.0000
32.0100 0.0000 1.0000
32.0200 1.0094 1.0000
32.0300 0.9991 1.0000
32.0400 1.9764 1.0000
32.0500 2.0378 1.0000
32.0600 1.0253 1.0000
32.0700 0.0000 1.0000
32.0800 3.3921 1.0000
32.0900 0.0000 1.0000
32.1000 1.0655 1.0000
32.1100 4.5360 1.0000
32.1200 1.0464 1.0000
32.1300 0.0000 1.0000
32.1400 3.0294 1.0000
32.1500 0.0000 1.0000
32.1600 1.0006 1.0000
32.1700 0.0000 1.0000
32.1800 1.9938 1.0000
32.1900 1.0393 1.0000
32.2000 0.0000 1.0000
32.2100 1.0069 1.0000
32.2200 0.0000 1.0000
32.2300 1.5738 1.0000
32.2400 1.0297 1.0000
32.2500 0.0000 1.0000
32.2600 1.3152 1.0000
32.2700 0.3240 1.0000
32.2800 1.9629 1.0000
32.2900 1.0186 1.0000
32.3000 0.9687 1.0000
32.3100 0.3393 1.0000
32.3200 1.9993 1.0000
32.3300 0.0000 1.0000
32.3400 2.3281 1.0000
32.3500 1.0079 1.0000
32.3600 0.0000 1.0000
32.3700 0.0000 1.0000
32.3800 1.3800 1.0000
32.3900 0.0000 1.0000
32.4000 0.9919 1.0000
32.4100 0.0000 1.0000
32.4200 0.0000 1.0000
32.4300 2.0224 1.0000
32.4400 3.0268 1.0000
32.4500 0.9912 1.0000
32.4600 0.9526 1.0000
32.4700 1.5172 1.0000
32.4800 1.1427 1.0000
32.4900 1.9683 1.0000
32.5000 0.0000 1.0000
32.5100 0.0000 1.0000
32.5200 0.0000 1.0000
32.5300 1.0531 1.0000
32.5400 1.0144 1.0000
32.5500 0.0000 1.0000
32.5600 0.0000 1.0000
32.5700 4.1132 1.0000
32.5800 2.9875 1.0000
32.5900 1.0470 1.0000
32.6000 1.0300 1.0000
32.6100 0.0000 1.0000
32.6200 0.0000 1.0000
32.6300 2.0642 1.0000
32.6400 0.0000 1.0000
32.6500 0.0000 1.0000
32.6600 0.0000 1.0000
32.6700 0.0000 1.0000
32.6800 0.3345 1.0000
32.6900 2.0129 1.0000
32.7000 0.9846 1.0000
32.7100 0.0000 1.0000
32.7200 0.9894 1.0000
32.7300 0.3212 1.0000
32.7400 0.0000 1.0000
32.7500 0.0000 1.0000
32.7600 1.0561 1.0000
32.7700 1.0605 1.0000
32.7800 0.3382 1.0000
32.7900 0.9944 1.0000
32.8000 2.0541 1.0000
32.8100 2.0225 1.0000
32.8200 0.0000 1.0000
32.8300 1.0522 1.0000
32.8400 0.9639 1.0000
32.8500 3.0388 1.0000
32.8600 0.0000 1.0000
32.8700 1.0412 1.0000
32.8800 0.9983 1.0000
32.8900 0.0000 1.0000
32.9000 1.0531 1.0000
32.9100 0.3234 1.0000
32.9200 0.0000 1.0000
32.9300 1.0319 1.0000
32.9400 2.3169 1.0000
32.9500 3.0048 1.0000
32.9600 1.0520 1.0000
32.9700 1.0531 1.0000
32.9800 0.0000 1.0000
32.9900 4.0569 1.0000
33.0000 0.9946 1.0000
33.0100 1.0544 1.0000
33.0200 0.0000 1.0000
33.0300 2.0390 1.0000
33.0400 0.0000 1.0000
33.0500 0.9620 1.0000
33.0600 2.9772 1.0000
33.0700 0.0000 1.0000
33.0800 0.9761 1.0000
33.0900 0.0000 1.0000
33.1000 0.0000 1.0000
33.1100 1.9895 1.0000
33.1200 1.0601 1.0000
33.1300 0.0000 1.0000
33.1400 1.9981 1.0000
33.1500 3.0888 1.0000
33.1600 2.0730 1.0000
33.1700 1.3214 1.0000
33.1800 1.3436 1.0000
33.1900 0.0000 1.0000
33.2000 1.0159 1.0000
33.2100 0.9987 1.0000
33.2200 0.9768 1.0000
33.2300 2.4157 1.0000
33.2400 0.9644 1.0000
33.2500 0.9684 1.0000
33.2600 2.0123 1.0000
33.2700 0.0000 1.0000
33.2800 0.0000 1.0000
33.2900 0.9974 1.0000
33.3000 0.0000 1.0000
33.3100 0.0000 1.0000
33.3200 0.3251 1.0000
33.3300 2.0411 1.0000
33.3400 0.3296 1.0000
33.3500 0.0000 1.0000
33.3600 0.0000 1.0000
33.3700 2.0480 1.0000
33.3800 3.0435 1.0000
33.3900 0.0000 1.0000
33.4000 1.9465 1.0000
33.4100 0.9882 1.0000
33.4200 1.9997 1.0000
33.4300 1.3035 1.0000
33.4400 0.0000 1.0000
33.4500 0.0000 1.0000
33.4600 0.0000 1.0000
33.4700 1.0457 1.0000
33.4800 0.9720 1.0000
33.4900 0.0000 1.0000
33.5000 1.3907 1.0000
33.5100 0.0000 1.0000
33.5200 0.3418 1.0000
33.5300 1.0093 1.0000
33.5400 2.9965 1.0000
33.5500 1.0452 1.0000
33.5600 1.2688 1.0000
33.5700 1.0464 1.0000
33.5800 0.0000 1.0000
33.5900 0.3468 1.0000
33.6000 1.0093 1.0000
33.6100 1.0442 1.0000
33.6200 0.0000 1.0000
33.6300 0.3418 1.0000
33.6400 0.3311 1.0000
33.6500 0.0000 1.0000
33.6600 1.0703 1.0000
33.6700 0.0000 1.0000
33.6800 0.0000 1.0000
33.6900 0.0000 1.0000
33.7000 1.7111 1.0000
33.7100 0.0000 1.0000
33.7200 0.9987 1.0000
33.7300 2.1446 1.0000
33.7400 1.0006 1.0000
33.7500 0.9840 1.0000
33.7600 1.0047 1.0000
33.7700 0.0000 1.0000
33.7800 1.2917 1.0000
33.7900 0.9869 1.0000
33.8000 0.0000 1.0000
33.8100 1.3849 1.0000
33.8200 2.0799 1.0000
33.8300 0.0000 1.0000
33.8400 0.0000 1.0000
33.8500 1.0262 1.0000
33.8600 0.0000 1.0000
33.8700 1.1650 1.0000
33.8800 0.9738 1.0000
33.8900 1.0434 1.0000
33.9000 0.0000 1.0000
33.9100 0.0000 1.0000
33.9200 3.0282 1.0000
33.9300 0.9926 1.0000
33.9400 1.6085 1.0000
33.9500 1.9911 1.0000
33.9600 1.9834 1.0000
33.9700 1.0109 1.0000
33.9800 1.0271 1.0000
33.9900 0.3288 1.0000
34.0000 1.0461 1.0000
34.0100 0.0000 1.0000
34.0200 0.0000 1.0000
34.0300 1.0249 1.0000
34.0400 0.0000 1.0000
34.0500 0.3236 1.0000
34.0600 2.0463 1.0000
34.0700 0.0000 1.0000
34.0800 1.9910 1.0000
34.0900 2.9816 1.0000
34.1000 0.3306 1.0000
34.1100 0.0000 1.0000
34.1200 2.0087 1.0000
34.1300 1.0082 1.0000
34.1400 0.0000 1.0000
34.1500 1.3252 1.0000
34.1600 0.0000 1.0000
34.1700 0.0000 1.0000
34.1800 1.0093 1.0000
34.1900 0.0000 1.0000
34.2000 2.0258 1.0000
34.2100 1.0364 1.0000
34.2200 2.3393 1.0000
34.2300 0.0000 1.0000
34.2400 0.0000 1.0000
34.2500 0.0000 1.0000
34.2600 1.2998 1.0000
34.2700 1.9657 1.0000
34.2800 1.9827 1.0000
34.2900 0.0000 1.0000
34.3000 0.0000 1.0000
34.3100 0.3496 1.0000
34.3200 0.5703 1.0000
34.3300 0.0000 1.0000
34.3400 0.0000 1.0000
34.3500 0.0000 1.0000
34.3600 0.9998 1.0000
34.3700 0.9938 1.0000
34.3800 0.0000 1.0000
34.3900 0.9975 1.0000
34.4000 0.0000 1.0000
34.4100 0.0000 1.0000
34.4200 1.0071 1.0000
34.4300 0.0000 1.0000
34.4400 0.0000 1.0000
34.4500 0.0000 1.0000
34.4600 0.0000 1.0000
34.4700 1.9756 1.0000
34.4800 3.0711 1.0000
34.4900 1.0114 1.0000
34.5000 0.9889 1.0000
34.5100 2.0130 1.0000
34.5200 0.0000 1.0000
34.5300 0.0000 1.0000
34.5400 0.0000 1.0000
34.5500 1.7340 1.0000
34.5600 1.0006 1.0000
34.5700 3.5215 1.0000
34.5800 3.0620 1.0000
34.5900 2.0668 1.0000
34.6000 1.0692 1.0000
34.6100 2.4298 1.0000
34.6200 0.9894 1.0000
34.6300 1.0138 1.0000
34.6400 1.0084 1.0000
34.6500 2.0160 1.0000
34.6600 0.0000 1.0000
34.6700 0.0000 1.0000
34.6800 2.0075 1.0000
34.6900 1.0096 1.0000
34.7000 0.9613 1.0000
34.7100 0.0000 1.0000
34.7200 0.3250 1.0000
34.7300 0.0000 1.0000
34.7400 1.3390 1.0000
34.7500 0.0000 1.0000
34.7600 0.0000 1.0000
34.7700 0.0000 1.0000
34.7800 0.0000 1.0000
34.7900 0.0000 1.0000
34.8000 0.9460 1.0000
34.8100 0.0000 1.0000
34.8200 2.3024 1.0000
34.8300 0.0000 1.0000
34.8400 0.0000 1.0000
34.8500 0.0000 1.0000
34.8600 1.3654 1.0000
34.8700 0.0000 1.0000
34.8800 1.9860 1.0000
34.8900 3.0850 1.0000
34.9000 0.0000 1.0000
34.9100 1.0144 1.0000
34.9200 1.3371 1.0000
34.9300 1.9506 1.0000
34.9400 0.9690 1.0000
34.9500 2.0531 1.0000
34.9600 1.0253 1.0000
34.9700 3.7186 1.0000
34.9800 0.0000 1.0000
34.9900 0.0000 1.0000
35.0000 0.0000 1.0000
35.0100 1.0338 1.0000
35.0200 1.0461 1.0000
35.0300 0.3419 1.0000
35.0400 0.0000 1.0000
35.0500 0.9683 1.0000
35.0600 2.3627 1.0000
35.0700 0.9852 1.0000
35.0800 2.0296 1.0000
35.0900 0.0000 1.0000
35.1000 0.9860 1.0000
35.1100 3.0741 1.0000
35.1200 2.0363 1.0000
35.1300 0.0000 1.0000
35.1400 0.0000 1.0000
35.1500 0.0000 1.0000
35.1600 3.2339 1.0000
35.1700 0.9832 1.0000
35.1800 0.0000 1.0000
35.1900 0.0000 1.0000
35.2000 0.0000 1.0000
35.2100 0.0000 1.0000
35.2200 0.9524 1.0000
35.2300 2.0407 1.0000
35.2400 2.1266 1.0000
35.2500 2.0083 1.0000
35.2600 2.0853 1.0000
35.2700 3.0694 1.0000
35.2800 0.0000 1.0000
35.2900 0.9902 1.0000
35.3000 2.0571 1.0000
35.3100 0.9963 1.0000
35.3200 1.0096 1.0000
35.3300 0.3269 1.0000
35.3400 0.0000 1.0000
35.3500 1.2861 1.0000
35.3600 1.0057 1.0000
35.3700 0.9738 1.0000
35.3800 0.0000 1.0000
35.3900 0.0000 1.0000
35.4000 1.0093 1.0000
35.4100 0.0000 1.0000
35.4200 1.0023 1.0000
35.4300 1.0302 1.0000
35.4400 1.9467 1.0000
35.4500 0.3258 1.0000
35.4600 0.0000 1.0000
35.4700 0.9563 1.0000
35.4800 2.0259 1.0000
35.4900 4.3058 1.0000
35.5000 2.0200 1.0000
35.5100 3.0698 1.0000
35.5200 0.0000 1.0000
35.5300 2.0161 1.0000
35.5400 0.9992 1.0000
35.5500 0.0000 1.0000
35.5600 0.0000 1.0000
35.5700 0.0000 1.0000
35.5800 1.0069 1.0000
35.5900 1.0006 1.0000
35.6000 0.0000 1.0000
35.6100 1.9839 1.0000
35.6200 0.0000 1.0000
35.6300 1.0572 1.0000
35.6400 1.0042 1.0000
35.6500 0.0000 1.0000
35.6600 0.0000 1.0000
35.6700 0.9853 1.0000
35.6800 0.0000 1.0000
35.6900 1.0129 1.0000
35.7000 0.0000 1.0000
35.7100 0.9723 1.0000
35.7200 1.0458 1.0000
35.7300 0.9852 1.0000
35.7400 2.0060 1.0000
35.7500 1.0508 1.0000
35.7600 2.0737 1.0000
35.7700 2.0480 1.0000
35.7800 2.0463 1.0000
35.7900 1.0094 1.0000
35.8000 2.0043 1.0000
35.8100 1.0097 1.0000
35.8200 2.0066 1.0000
35.8300 1.0270 1.0000
35.8400 1.9958 1.0000
35.8500 0.0000 1.0000
35.8600 0.9608 1.0000
35.8700 0.0000 1.0000
35.8800 0.9957 1.0000
35.8900 1.0450 1.0000
35.9000 2.2842 1.0000
35.9100 3.9567 1.0000
35.9200 1.0534 1.0000
35.9300 1.9718 1.0000
35.9400 1.0166 1.0000
35.9500 2.0349 1.0000
35.9600 0.0000 1.0000
35.9700 0.0000 1.0000
35.9800 0.0000 1.0000
35.9900 1.9618 1.0000
36.0000 1.3497 1.0000
36.0100 0.0000 1.0000
36.0200 0.3396 1.0000
36.0300 1.0607 1.0000
36.0400 0.3210 1.0000
36.0500 0.0000 1.0000
36.0600 0.0000 1.0000
36.0700 0.0000 1.0000
36.0800 1.0041 1.0000
36.0900 1.3356 1.0000
36.1000 0.0000 1.0000
36.1100 1.0477 1.0000
36.1200 1.9333 1.0000
36.1300 1.0254 1.0000
36.1400 1.0778 1.0000
36.1500 1.0570 1.0000
36.1600 0.9644 1.0000
36.1700 0.0000 1.0000
36.1800 3.0271 1.0000
36.1900 0.0000 1.0000
36.2000 0.0000 1.0000
36.2100 0.0000 1.0000
36.2200 0.0000 1.0000
36.2300 1.0138 1.0000
36.2400 2.0287 1.0000
36.2500 0.0000 1.0000
36.2600 2.0590 1.0000
36.2700 0.8725 1.0000
36.2800 2.0096 1.0000
36.2900 0.9770 1.0000
36.3000 1.3873 1.0000
36.3100 0.0000 1.0000
36.3200 0.9839 1.0000
36.3300 0.0000 1.0000
36.3400 1.9497 1.0000
36.3500 3.5123 1.0000
36.3600 2.0395 1.0000
36.3700 0.0000 1.0000
36.3800 0.3340 1.0000
36.3900 0.0000 1.0000
36.4000 0.0000 1.0000
36.4100 0.0000 1.0000
36.4200 0.0000 1.0000
36.4300 1.0312 1.0000
36.4400 0.0000 1.0000
36.4500 2.0688 1.0000
36.4600 0.0000 1.0000
36.4700 0.0000 1.0000
36.4800 2.0222 1.0000
36.4900 0.0000 1.0000
36.5000 1.0358 1.0000
36.5100 1.3424 1.0000
36.5200 0.0000 1.0000
36.5300 0.0000 1.0000
36.5400 1.0006 1.0000
36.5500 0.0000 1.0000
36.5600 0.0000 1.0000
36.5700 1.9616 1.0000
36.5800 1.9739 1.0000
36.5900 0.0000 1.0000
36.6000 1.5116 1.0000
36.6100 1.0226 1.0000
36.6200 2.0397 1.0000
36.6300 0.0000 1.0000
36.6400 2.0501 1.0000
36.6500 0.9880 1.0000
36.6600 1.0525 1.0000
36.6700 0.9857 1.0000
36.6800 2.0367 1.0000
36.6900 3.9816 1.0000
36.7000 1.0071 1.0000
36.7100 2.0343 1.0000
36.7200 1.3113 1.0000
36.7300 1.0050 1.0000
36.7400 1.0048 1.0000
36.7500 1.0093 1.0000
36.7600 1.0716 1.0000
36.7700 0.0000 1.0000
36.7800 1.9566 1.0000
36.7900 2.0745 1.0000
36.8000 1.9877 1.0000
36.8100 2.6724 1.0000
36.8200 1.9649 1.0000
36.8300 0.0000 1.0000
36.8400 1.0006 1.0000
36.8500 0.9946 1.0000
36.8600 1.6718 1.0000
36.8700 0.9951 1.0000
36.8800 0.9876 1.0000
36.8900 0.0000 1.0000
36.9000 0.0000 1.0000
36.9100 0.0000 1.0000
36.9200 2.3796 1.0000
36.9300 1.0135 1.0000
36.9400 1.0076 1.0000
36.9500 0.0000 1.0000
36.9600 0.0000 1.0000
36.9700 1.3065 1.0000
36.9800 1.9954 1.0000
36.9900 0.0000 1.0000
37.0000 0.9811 1.0000
37.0100 1.0262 1.0000
37.0200 0.9688 1.0000
37.0300 0.9923 1.0000
37.0400 1.9904 1.0000
37.0500 0.0000 1.0000
37.0600 3.0487 1.0000
37.0700 1.3424 1.0000
37.0800 2.3900 1.0000
37.0900 1.0071 1.0000
37.1000 0.0000 1.0000
37.1100 2.0316 1.0000
37.1200 0.3410 1.0000
37.1300 0.0000 1.0000
37.1400 2.1128 1.0000
37.1500 0.0000 1.0000
37.1600 0.0000 1.0000
37.1700 1.0439 1.0000
37.1800 0.0000 1.0000
37.1900 0.0000 1.0000
37.2000 0.0000 1.0000
37.2100 0.0000 1.0000
37.2200 1.3493 1.0000
37.2300 0.0000 1.0000
37.2400 2.0134 1.0000
37.2500 2.0279 1.0000
37.2600 2.1143 1.0000
37.2700 0.3279 1.0000
37.2800 0.9898 1.0000
37.2900 1.0401 1.0000
37.3000 1.0055 1.0000
37.3100 0.0000 1.0000
37.3200 0.0000 1.0000
37.3300 0.9700 1.0000
37.3400 1.0113 1.0000
37.3500 2.0154 1.0000
37.3600 0.0000 1.0000
37.3700 0.0000 1.0000
37.3800 2.0109 1.0000
37.3900 1.0825 1.0000
37.4000 1.0047 1.0000
37.4100 0.9683 1.0000
37.4200 0.3468 1.0000
37.4300 1.0315 1.0000
37.4400 1.0016 1.0000
37.4500 1.0197 1.0000
37.4600 3.0727 1.0000
37.4700 2.0257 1.0000
37.4800 0.3212 1.0000
37.4900 2.0929 1.0000
37.5000 0.0000 1.0000
37.5100 1.9829 1.0000
37.5200 0.9985 1.0000
37.5300 1.5116 1.0000
37.5400 0.0000 1.0000
37.5500 0.3236 1.0000
37.5600 0.9882 1.0000
37.5700 0.0000 1.0000
37.5800 2.0213 1.0000
37.5900 0.9930 1.0000
37.6000 1.0317 1.0000
37.6100 0.0000 1.0000
37.6200 1.0361 1.0000
37.6300 0.0000 1.0000
37.6400 0.0000 1.0000
37.6500 0.9832 1.0000
37.6600 0.0000 1.0000
37.6700 0.0000 1.0000
37.6800 1.2965 1.0000
37.6900 0.0000 1.0000
37.7000 1.9941 1.0000
37.7100 0.0000 1.0000
37.7200 0.9903 1.0000
37.7300 0.3345 1.0000
37.7400 0.0000 1.0000
37.7500 1.6663 1.0000
37.7600 0.0000 1.0000
37.7700 0.3320 1.0000
37.7800 1.0703 1.0000
37.7900 2.0439 1.0000
37.8000 0.0000 1.0000
37.8100 0.0000 1.0000
37.8200 0.9802 1.0000
37.8300 0.0000 1.0000
37.8400 1.9889 1.0000
37.8500 0.0000 1.0000
37.8600 0.0000 1.0000
37.8700 1.9567 1.0000
37.8800 0.9738 1.0000
37.8900 0.0000 1.0000
37.9000 2.9703 1.0000
37.9100 1.1356 1.0000
37.9200 0.0000 1.0000
37.9300 3.3569 1.0000
37.9400 6.1062 1.0000
37.9500 0.0000 1.0000
37.9600 1.0396 1.0000
37.9700 0.0000 1.0000
37.9800 3.3779 1.0000
37.9900 0.0000 1.0000
38.0000 0.9846 1.0000
38.0100 2.3025 1.0000
38.0200 0.0000 1.0000
38.0300 0.9864 1.0000
38.0400 1.0685 1.0000
38.0500 1.1257 1.0000
38.0600 0.0000 1.0000
38.0700 0.0000 1.0000
38.0800 0.0000 1.0000
38.0900 1.9647 1.0000
38.1000 1.0669 1.0000
38.1100 0.0000 1.0000
38.1200 1.0071 1.0000
38.1300 0.0000 1.0000
38.1400 0.0000 1.0000
38.1500 1.0096 1.0000
38.1600 1.0174 1.0000
38.1700 1.0161 1.0000
38.1800 1.3637 1.0000
38.1900 0.0000 1.0000
38.2000 0.0000 1.0000
38.2100 0.0000 1.0000
38.2200 0.0000 1.0000
38.2300 0.0000 1.0000
38.2400 4.0528 1.0000
38.2500 0.0000 1.0000
38.2600 0.9974 1.0000
38.2700 1.0655 1.0000
38.2800 2.0543 1.0000
38.2900 0.0000 1.0000
38.3000 0.0000 1.0000
38.3100 1.0100 1.0000
38.3200 0.0000 1.0000
38.3300 0.0000 1.0000
38.3400 0.0000 1.0000
38.3500 0.3311 1.0000
38.3600 1.5760 1.0000
38.3700 1.3170 1.0000
38.3800 0.0000 1.0000
38.3900 2.0850 1.0000
38.4000 0.0000 1.0000
38.4100 0.0000 1.0000
38.4200 0.0000 1.0000
38.4300 0.9971 1.0000
38.4400 0.3260 1.0000
38.4500 3.9209 1.0000
38.4600 1.0144 1.0000
38.4700 0.3468 1.0000
38.4800 0.0000 1.0000
38.4900 0.0000 1.0000
38.5000 1.9920 1.0000
38.5100 0.0000 1.0000
38.5200 3.0002 1.0000
38.5300 0.9869 1.0000
38.5400 0.9942 1.0000
38.5500 1.0055 1.0000
38.5600 0.3325 1.0000
38.5700 0.0000 1.0000
38.5800 0.0000 1.0000
38.5900 0.0000 1.0000
38.6000 0.0000 1.0000
38.6100 1.3405 1.0000
38.6200 3.0480 1.0000
38.6300 1.3472 1.0000
38.6400 1.0578 1.0000
38.6500 1.9972 1.0000
38.6600 0.0000 1.0000
38.6700 0.0000 1.0000
38.6800 0.0000 1.0000
38.6900 1.3545 1.0000
38.7000 0.0000 1.0000
38.7100 0.0000 1.0000
38.7200 0.0000 1.0000
38.7300 0.0000 1.0000
38.7400 0.0000 1.0000
38.7500 0.0000 1.0000
38.7600 0.9946 1.0000
38.7700 0.3408 1.0000
38.7800 1.0288 1.0000
38.7900 0.0000 1.0000
38.8000 0.0000 1.0000
38.8100 1.0186 1.0000
38.8200 0.9862 1.0000
38.8300 3.0632 1.0000
38.8400 1.0094 1.0000
38.8500 0.3356 1.0000
38.8600 0.0000 1.0000
38.8700 1.9666 1.0000
38.8800 2.0103 1.0000
38.8900 2.0211 1.0000
38.9000 0.9986 1.0000
38.9100 2.0026 1.0000
38.9200 0.0000 1.0000
38.9300 0.9478 1.0000
38.9400 0.9552 1.0000
38.9500 2.9299 1.0000
38.9600 1.0211 1.0000
38.9700 0.0000 1.0000
38.9800 1.0253 1.0000
38.9900 0.0000 1.0000
39.0000 2.0215 1.0000
39.0100 1.0041 1.0000
39.0200 0.0000 1.0000
39.0300 1.0350 1.0000
39.0400 0.0000 1.0000
39.0500 0.3403 1.0000
39.0600 0.0000 1.0000
39.0700 0.9846 1.0000
39.0800 1.0527 1.0000
39.0900 1.9725 1.0000
39.1000 1.0485 1.0000
39.1100 0.0000 1.0000
39.1200 1.0194 1.0000
39.1300 0.9517 1.0000
39.1400 0.3306 1.0000
39.1500 0.0000 1.0000
39.1600 0.0000 1.0000
39.1700 1.9802 1.0000
39.1800 2.0341 1.0000
39.1900 1.0098 1.0000
39.2000 0.0000 1.0000
39.2100 0.0000 1.0000
39.2200 0.0000 1.0000
39.2300 1.0359 1.0000
39.2400 0.3273 1.0000
39.2500 0.0000 1.0000
39.2600 0.0000 1.0000
39.2700 1.0310 1.0000
39.2800 0.9800 1.0000
39.2900 2.3852 1.0000
39.3000 0.0000 1.0000
39.3100 1.0004 1.0000
39.3200 1.9680 1.0000
39.3300 1.0335 1.0000
39.3400 0.0000 1.0000
39.3500 1.0148 1.0000
39.3600 0.0000 1.0000
39.3700 0.0000 1.0000
39.3800 1.9779 1.0000
39.3900 3.0721 1.0000
39.4000 0.0000 1.0000
39.4100 1.0048 1.0000
39.4200 0.0000 1.0000
39.4300 0.0000 1.0000
39.4400 1.0927 1.0000
39.4500 0.6567 1.0000
39.4600 0.0000 1.0000
39.4700 1.0289 1.0000
39.4800 1.0063 1.0000
39.4900 0.9726 1.0000
39.5000 3.0061 1.0000
39.5100 1.0048 1.0000
39.5200 0.0000 1.0000
39.5300 1.0018 1.0000
39.5400 0.0000 1.0000
39.5500 0.0000 1.0000
39.5600 0.0000 1.0000
39.5700 1.0211 1.0000
39.5800 0.0000 1.0000
39.5900 0.3211 1.0000
39.6000 3.0099 1.0000
39.6100 1.0330 1.0000
39.6200 2.9762 1.0000
39.6300 0.3220 1.0000
39.6400 1.0161 1.0000
39.6500 0.9971 1.0000
39.6600 0.9870 1.0000
39.6700 0.9930 1.0000
39.6800 1.0098 1.0000
39.6900 2.0138 1.0000
39.7000 2.0291 1.0000
39.7100 1.0186 1.0000
39.7200 0.3262 1.0000
39.7300 0.9415 1.0000
39.7400 0.0000 1.0000
39.7500 2.0201 1.0000
39.7600 0.3218 1.0000
39.7700 0.0000 1.0000
39.7800 1.0132 1.0000
39.7900 1.0045 1.0000
39.8000 1.3974 1.0000
39.8100 2.0216 1.0000
39.8200 1.0162 1.0000
39.8300 0.0000 1.0000
39.8400 0.0000 1.0000
39.8500 0.0000 1.0000
39.8600 2.0157 1.0000
39.8700 0.9396 1.0000
39.8800 0.0000 1.0000
39.8900 0.9882 1.0000
39.9000 0.9683 1.0000
39.9100 0.1102 1.0000
39.9200 1.5446 1.0000
39.9300 1.3251 1.0000
39.9400 0.0000 1.0000
39.9500 2.0580 1.0000
39.9600 0.0000 1.0000
39.9700 0.0000 1.0000
39.9800 0.0000 1.0000
39.9900 0.9751 1.0000
40.0000 1.0287 1.0000
40.0100 4.0161 1.0000
40.0200 0.0000 1.0000
40.0300 0.9683 1.0000
40.0400 0.9912 1.0000
40.0500 0.0000 1.0000
40.0600 0.0000 1.0000
40.0700 1.0090 1.0000
40.0800 0.3399 1.0000
40.0900 4.3730 1.0000
40.1000 1.3534 1.0000
40.1100 0.3262 1.0000
40.1200 1.0598 1.0000
40.1300 0.9921 1.0000
40.1400 0.0000 1.0000
40.1500 0.0000 1.0000
40.1600 0.0000 1.0000
40.1700 2.0469 1.0000
40.1800 0.0000 1.0000
40.1900 0.0000 1.0000
40.2000 0.0000 1.0000
40.2100 0.0000 1.0000
40.2200 0.0000 1.0000
40.2300 2.0180 1.0000
40.2400 1.0322 1.0000
40.2500 1.0319 1.0000
40.2600 0.0000 1.0000
40.2700 0.0000 1.0000
40.2800 0.9901 1.0000
40.2900 2.0648 1.0000
40.3000 0.3274 1.0000
40.3100 0.0000 1.0000
40.3200 0.0000 1.0000
40.3300 0.9894 1.0000
40.3400 1.9702 1.0000
40.3500 0.0000 1.0000
40.3600 0.9751 1.0000
40.3700 2.0614 1.0000
40.3800 1.3014 1.0000
40.3900 1.6849 1.0000
40.4000 0.0000 1.0000
40.4100 0.0000 1.0000
40.4200 1.0138 1.0000
40.4300 0.0000 1.0000
40.4400 1.3873 1.0000
40.4500 1.9503 1.0000
40.4600 0.0000 1.0000
40.4700 2.0078 1.0000
40.4800 0.0000 1.0000
40.4900 0.9686 1.0000
40.5000 0.0000 1.0000
40.5100 0.0000 1.0000
40.5200 2.0068 1.0000
40.5300 0.3319 1.0000
40.5400 1.9842 1.0000
40.5500 3.0083 1.0000
40.5600 0.0000 1.0000
40.5700 0.0000 1.0000
40.5800 2.0152 1.0000
40.5900 0.0000 1.0000
40.6000 2.0338 1.0000
40.6100 0.0000 1.0000
40.6200 1.0257 1.0000
40.6300 1.9754 1.0000
40.6400 0.9630 1.0000
40.6500 0.9921 1.0000
40.6600 1.0175 1.0000
40.6700 0.9396 1.0000
40.6800 1.0475 1.0000
40.6900 0.9973 1.0000
40.7000 1.0069 1.0000
40.7100 1.0206 1.0000
40.7200 2.0249 1.0000
40.7300 0.9501 1.0000
40.7400 1.0692 1.0000
40.7500 0.0000 1.0000
40.7600 0.0000 1.0000
40.7700 1.9634 1.0000
40.7800 1.0591 1.0000
40.7900 2.0180 1.0000
40.8000 0.0000 1.0000
40.8100 0.9942 1.0000
40.8200 1.9606 1.0000
40.8300 0.0000 1.0000
40.8400 2.0011 1.0000
40.8500 0.0000 1.0000
40.8600 0.9626 1.0000
40.8700 1.0035 1.0000
40.8800 0.9669 1.0000
40.8900 1.0078 1.0000
40.9000 1.0120 1.0000
40.9100 0.0000 1.0000
40.9200 0.0000 1.0000
40.9300 0.0000 1.0000
40.9400 0.0000 1.0000
40.9500 0.0000 1.0000
40.9600 0.0000 1.0000
40.9700 0.9824 1.0000
40.9800 1.0393 1.0000
40.9900 1.0137 1.0000
41.0000 0.0000 1.0000
41.0100 2.0372 1.0000
41.0200 0.3253 1.0000
41.0300 1.2984 1.0000
41.0400 0.0000 1.0000
41.0500 0.0000 1.0000
41.0600 3.0296 1.0000
41.0700 0.0000 1.0000
41.0800 1.0138 1.0000
41.0900 0.0000 1.0000
41.1000 1.0597 1.0000
41.1100 0.9681 1.0000
41.1200 0.3182 1.0000
41.1300 1.0187 1.0000
41.1400 0.9980 1.0000
41.1500 0.0000 1.0000
41.1600 1.0362 1.0000
41.1700 0.0000 1.0000
41.1800 2.0384 1.0000
41.1900 0.9876 1.0000
41.2000 2.0198 1.0000
41.2100 1.0463 1.0000
41.2200 0.0000 1.0000
41.2300 0.9396 1.0000
41.2400 2.0157 1.0000
41.2500 1.5669 1.0000
41.2600 2.9767 1.0000
41.2700 1.9985 1.0000
41.2800 1.0075 1.0000
41.2900 2.0277 1.0000
41.3000 0.0000 1.0000
41.3100 0.0000 1.0000
41.3200 0.0000 1.0000
41.3300 1.0242 1.0000
41.3400 1.3538 1.0000
41.3500 0.0000 1.0000
41.3600 1.0624 1.0000
41.3700 0.0000 1.0000
41.3800 1.0132 1.0000
41.3900 0.9770 1.0000
41.4000 0.0000 1.0000
41.4100 1.9890 1.0000
41.4200 0.0000 1.0000
41.4300 2.5310 1.0000
41.4400 0.0000 1.0000
41.4500 0.3211 1.0000
41.4600 0.0000 1.0000
41.4700 0.0000 1.0000
41.4800 0.9884 1.0000
41.4900 0.0000 1.0000
41.5000 0.3311 1.0000
41.5100 0.0000 1.0000
41.5200 2.0479 1.0000
41.5300 0.0000 1.0000
41.5400 1.0002 1.0000
41.5500 0.0000 1.0000
41.5600 1.9775 1.0000
41.5700 0.9816 1.0000
41.5800 1.0133 1.0000
41.5900 0.3262 1.0000
41.6000 0.9999 1.0000
41.6100 0.9608 1.0000
41.6200 0.9922 1.0000
41.6300 1.0825 1.0000
41.6400 0.0000 1.0000
41.6500 0.0000 1.0000
41.6600 3.4729 1.0000
41.6700 0.0000 1.0000
41.6800 1.9699 1.0000
41.6900 0.0000 1.0000
41.7000 2.0587 1.0000
41.7100 0.3306 1.0000
41.7200 0.0000 1.0000
41.7300 5.0465 1.0000
41.7400 0.0000 1.0000
41.7500 1.3077 1.0000
41.7600 1.9359 1.0000
41.7700 1.0197 1.0000
41.7800 2.0295 1.0000
41.7900 1.4059 1.0000
41.8000 1.0041 1.0000
41.8100 2.0223 1.0000
41.8200 1.0306 1.0000
41.8300 4.0848 1.0000
41.8400 2.9577 1.0000
41.8500 1.3485 1.0000
41.8600 0.9924 1.0000
41.8700 1.0196 1.0000
41.8800 0.0000 1.0000
41.8900 0.0000 1.0000
41.9000 0.3147 1.0000
41.9100 3.0072 1.0000
41.9200 0.0000 1.0000
41.9300 2.0370 1.0000
41.9400 0.3344 1.0000
41.9500 0.0000 1.0000
41.9600 0.9949 1.0000
41.9700 0.9895 1.0000
41.9800 1.0552 1.0000
41.9900 0.9684 1.0000
42.0000 0.0000 1.0000
42.0100 0.0000 1.0000
42.0200 1.0216 1.0000
42.0300 1.0123 1.0000
42.0400 0.0000 1.0000
42.0500 1.0289 1.0000
42.0600 1.3131 1.0000
42.0700 1.3298 1.0000
42.0800 0.0000 1.0000
42.0900 0.3214 1.0000
42.1000 0.3288 1.0000
42.1100 1.0174 1.0000
42.1200 0.0000 1.0000
42.1300 0.0000 1.0000
42.1400 1.3745 1.0000
42.1500 2.0380 1.0000
42.1600 0.0000 1.0000
42.1700 1.0287 1.0000
42.1800 1.0510 1.0000
42.1900 1.0031 1.0000
42.2000 0.0000 1.0000
42.2100 0.0000 1.0000
42.2200 0.0000 1.0000
42.2300 1.0485 1.0000
42.2400 0.0000 1.0000
42.2500 1.0143 1.0000
42.2600 1.5352 1.0000
42.2700 0.0000 1.0000
42.2800 2.9557 1.0000
42.2900 0.0000 1.0000
42.3000 0.9924 1.0000
42.3100 3.2168 1.0000
42.3200 0.0000 1.0000
42.3300 1.3135 1.0000
42.3400 2.4434 1.0000
42.3500 0.3370 1.0000
42.3600 0.0000 1.0000
42.3700 0.0000 1.0000
42.3800 1.3663 1.0000
42.3900 0.0000 1.0000
42.4000 0.0000 1.0000
42.4100 0.0000 1.0000
42.4200 0.3449 1.0000
42.4300 1.0218 1.0000
42.4400 0.0000 1.0000
42.4500 1.0485 1.0000
42.4600 0.0000 1.0000
42.4700 0.9608 1.0000
42.4800 1.0211 1.0000
42.4900 2.0171 1.0000
42.5000 0.9954 1.0000
42.5100 2.0744 1.0000
42.5200 0.9643 1.0000
42.5300 0.3341 1.0000
42.5400 0.0000 1.0000
42.5500 0.0000 1.0000
42.5600 1.0144 1.0000
42.5700 1.3172 1.0000
42.5800 2.5827 1.0000
42.5900 1.0377 1.0000
42.6000 0.9704 1.0000
42.6100 0.0000 1.0000
42.6200 1.0527 1.0000
42.6300 1.0127 1.0000
42.6400 2.0207 1.0000
42.6500 0.0000 1.0000
42.6600 0.0000 1.0000
42.6700 2.0064 1.0000
42.6800 0.0000 1.0000
42.6900 1.0384 1.0000
42.7000 0.0000 1.0000
42.7100 1.0133 1.0000
42.7200 0.9896 1.0000
42.7300 1.9832 1.0000
42.7400 0.0000 1.0000
42.7500 2.3375 1.0000
42.7600 0.0000 1.0000
42.7700 0.0000 1.0000
42.7800 0.0000 1.0000
42.7900 0.0000 1.0000
42.8000 0.0000 1.0000
42.8100 0.0000 1.0000
42.8200 0.3314 1.0000
42.8300 2.0073 1.0000
42.8400 0.0000 1.0000
42.8500 1.2983 1.0000
42.8600 0.0000 1.0000
42.8700 0.0000 1.0000
42.8800 1.0080 1.0000
42.8900 0.9928 1.0000
42.9000 2.0211 1.0000
42.9100 1.0026 1.0000
42.9200 0.0000 1.0000
42.9300 1.0049 1.0000
42.9400 0.0000 1.0000
42.9500 0.9927 1.0000
42.9600 1.3232 1.0000
42.9700 2.9662 1.0000
42.9800 0.9824 1.0000
42.9900 1.0669 1.0000
43.0000 2.2805 1.0000
43.0100 1.0085 1.0000
43.0200 1.0665 1.0000
43.0300 0.0000 1.0000
43.0400 0.9856 1.0000
43.0500 2.5286 1.0000
43.0600 0.0000 1.0000
43.0700 1.9914 1.0000
43.0800 0.0000 1.0000
43.0900 0.9683 1.0000
43.1000 2.0220 1.0000
43.1100 0.0000 1.0000
43.1200 0.9761 1.0000
43.1300 2.0138 1.0000
43.1400 3.9565 1.0000
43.1500 0.3274 1.0000
43.1600 0.3333 1.0000
43.1700 2.0000 1.0000
43.1800 0.0000 1.0000
43.1900 1.9875 1.0000
43.2000 1.0269 1.0000
43.2100 1.0258 1.0000
43.2200 0.0000 1.0000
43.2300 0.0000 1.0000
43.2400 3.0568 1.0000
43.2500 0.0000 1.0000
43.2600 0.0000 1.0000
43.2700 0.0000 1.0000
43.2800 0.0000 1.0000
43.2900 0.0000 1.0000
43.3000 0.0000 1.0000
43.3100 0.9781 1.0000
43.3200 2.0093 1.0000
43.3300 1.9839 1.0000
43.3400 0.0000 1.0000
43.3500 0.0000 1.0000
43.3600 0.3210 1.0000
43.3700 0.0000 1.0000
43.3800 0.9917 1.0000
43.3900 0.0000 1.0000
43.4000 0.0000 1.0000
43.4100 2.0149 1.0000
43.4200 3.0355 1.0000
43.4300 0.0000 1.0000
43.4400 0.9954 1.0000
43.4500 0.3258 1.0000
43.4600 0.0000 1.0000
43.4700 0.0000 1.0000
43.4800 0.0000 1.0000
43.4900 2.0659 1.0000
43.5000 0.0000 1.0000
43.5100 2.1327 1.0000
43.5200 0.9595 1.0000
43.5300 0.0000 1.0000
43.5400 2.0244 1.0000
43.5500 4.1054 1.0000
43.5600 0.3264 1.0000
43.5700 1.0127 1.0000
43.5800 2.5291 1.0000
43.5900 0.9908 1.0000
43.6000 0.0000 1.0000
43.6100 0.0000 1.0000
43.6200 0.9856 1.0000
43.6300 1.0359 1.0000
43.6400 0.3234 1.0000
43.6500 0.9622 1.0000
43.6600 0.0000 1.0000
43.6700 2.0277 1.0000
43.6800 1.0508 1.0000
43.6900 1.0020 1.0000
43.7000 1.0675 1.0000
43.7100 0.0000 1.0000
43.7200 0.9827 1.0000
43.7300 0.0000 1.0000
43.7400 3.0186 1.0000
43.7500 1.0359 1.0000
43.7600 0.9579 1.0000
43.7700 1.9664 1.0000
43.7800 0.0000 1.0000
43.7900 0.0000 1.0000
43.8000 0.0000 1.0000
43.8100 0.0000 1.0000
43.8200 0.0000 1.0000
43.8300 0.0000 1.0000
43.8400 1.0010 1.0000
43.8500 0.0000 1.0000
43.8600 0.0000 1.0000
43.8700 1.0393 1.0000
43.8800 0.0000 1.0000
43.8900 0.0000 1.0000
43.9000 0.9643 1.0000
43.9100 1.0277 1.0000
43.9200 0.0000 1.0000
43.9300 2.9936 1.0000
43.9400 0.0000 1.0000
43.9500 0.9608 1.0000
43.9600 0.0000 1.0000
43.9700 1.2891 1.0000
43.9800 2.0431 1.0000
43.9900 0.9771 1.0000
44.0000 0.0000 1.0000
44.0100 0.0000 1.0000
44.0200 2.0346 1.0000
44.0300 0.0000 1.0000
44.0400 0.0000 1.0000
44.0500 0.0000 1.0000
44.0600 0.0000 1.0000
44.0700 0.0000 1.0000
44.0800 0.0000 1.0000
44.0900 0.9723 1.0000
44.1000 0.0000 1.0000
44.1100 3.0547 1.0000
44.1200 0.0000 1.0000
44.1300 0.0000 1.0000
44.1400 0.0000 1.0000
44.1500 0.0000 1.0000
44.1600 0.0000 1.0000
44.1700 0.0000 1.0000
44.1800 2.5030 1.0000
44.1900 0.0000 1.0000
44.2000 1.0379 1.0000
44.2100 0.0000 1.0000
44.2200 0.9738 1.0000
44.2300 0.0000 1.0000
44.2400 0.0000 1.0000
44.2500 0.9954 1.0000
44.2600 1.3628 1.0000
44.2700 2.0051 1.0000
44.2800 0.0000 1.0000
44.2900 0.0000 1.0000
44.3000 3.2699 1.0000
44.3100 1.0157 1.0000
44.3200 0.0000 1.0000
44.3300 0.0000 1.0000
44.3400 0.0000 1.0000
44.3500 1.5142 1.0000
44.3600 1.9511 1.0000
44.3700 0.9652 1.0000
44.3800 0.0000 1.0000
44.3900 1.0138 1.0000
44.4000 1.9649 1.0000
44.4100 0.0000 1.0000
44.4200 0.0000 1.0000
44.4300 0.0000 1.0000
44.4400 0.9844 1.0000
44.4500 0.9784 1.0000
44.4600 0.0000 1.0000
44.4700 2.0691 1.0000
44.4800 1.3154 1.0000
44.4900 1.4433 1.0000
44.5000 0.0000 1.0000
44.5100 0.9995 1.0000
44.5200 3.1503 1.0000
44.5300 0.9663 1.0000
44.5400 0.9626 1.0000
44.5500 2.0065 1.0000
44.5600 0.0000 1.0000
44.5700 1.0092 1.0000
44.5800 1.9996 1.0000
44.5900 0.0000 1.0000
44.6000 1.9744 1.0000
44.6100 0.0000 1.0000
44.6200 0.0000 1.0000
44.6300 0.9682 1.0000
44.6400 1.9828 1.0000
44.6500 2.0246 1.0000
44.6600 0.3547 1.0000
44.6700 0.0000 1.0000
44.6800 1.0262 1.0000
44.6900 0.0000 1.0000
44.7000 3.0591 1.0000
44.7100 1.0132 1.0000
44.7200 2.0694 1.0000
44.7300 2.0317 1.0000
44.7400 0.9812 1.0000
44.7500 1.0193 1.0000
44.7600 0.9954 1.0000
44.7700 0.0000 1.0000
44.7800 5.0368 1.0000
44.7900 0.9415 1.0000
44.8000 0.0000 1.0000
44.8100 1.0053 1.0000
44.8200 0.9897 1.0000
44.8300 0.0000 1.0000
44.8400 0.0000 1.0000
44.8500 0.0000 1.0000
44.8600 3.0891 1.0000
44.8700 0.9845 1.0000
44.8800 1.0219 1.0000
44.8900 1.0400 1.0000
44.9000 0.3403 1.0000
44.9100 0.3382 1.0000
44.9200 1.0287 1.0000
44.9300 0.9816 1.0000
44.9400 0.3402 1.0000
44.9500 2.0297 1.0000
44.9600 0.0000 1.0000
44.9700 2.0279 1.0000
44.9800 0.0000 1.0000
44.9900 2.0109 1.0000
45.0000 0.0000 1.0000
45.0100 3.0799 1.0000
45.0200 0.9988 1.0000
45.0300 1.9957 1.0000
45.0400 0.0000 1.0000
45.0500 0.0000 1.0000
45.0600 1.0114 1.0000
45.0700 0.9989 1.0000
45.0800 1.0213 1.0000
45.0900 1.0452 1.0000
45.1000 0.9987 1.0000
45.1100 0.9999 1.0000
45.1200 1.0342 1.0000
45.1300 0.0000 1.0000
45.1400 3.5713 1.0000
45.1500 1.0152 1.0000
45.1600 0.9998 1.0000
45.1700 0.9805 1.0000
45.1800 0.0000 1.0000
45.1900 0.0000 1.0000
45.2000 0.0000 1.0000
45.2100 0.0000 1.0000
45.2200 0.0000 1.0000
45.2300 0.9976 1.0000
45.2400 0.0000 1.0000
45.2500 0.3274 1.0000
45.2600 1.3047 1.0000
45.2700 2.0154 1.0000
45.2800 1.0396 1.0000
45.2900 0.9999 1.0000
45.3000 0.9970 1.0000
45.3100 1.0655 1.0000
45.3200 1.9668 1.0000
45.3300 0.9943 1.0000
45.3400 1.9741 1.0000
45.3500 0.3406 1.0000
45.3600 1.9668 1.0000
45.3700 0.9745 1.0000
45.3800 0.0000 1.0000
45.3900 1.0133 1.0000
45.4000 0.0000 1.0000
45.4100 0.0000 1.0000
45.4200 1.3200 1.0000
45.4300 0.3173 1.0000
45.4400 0.9873 1.0000
45.4500 0.0000 1.0000
45.4600 1.5272 1.0000
45.4700 0.0000 1.0000
45.4800 0.0000 1.0000
45.4900 0.9887 1.0000
45.5000 2.0875 1.0000
45.5100 0.0000 1.0000
45.5200 0.0000 1.0000
45.5300 0.0000 1.0000
45.5400 0.0000 1.0000
45.5500 1.3610 1.0000
45.5600 2.0017 1.0000
45.5700 1.0324 1.0000
45.5800 0.9998 1.0000
45.5900 2.3062 1.0000
45.6000 0.0000 1.0000
45.6100 2.0458 1.0000
45.6200 1.0575 1.0000
45.6300 0.9857 1.0000
45.6400 0.0000 1.0000
45.6500 0.0000 1.0000
45.6600 1.0335 1.0000
45.6700 1.9283 1.0000
45.6800 0.9643 1.0000
45.6900 0.0000 1.0000
45.7000 0.0000 1.0000
45.7100 1.0423 1.0000
45.7200 0.3449 1.0000
45.7300 1.0174 1.0000
45.7400 0.0000 1.0000
45.7500 2.1999 1.0000
45.7600 0.0000 1.0000
45.7700 1.2921 1.0000
45.7800 0.0000 1.0000
45.7900 2.0609 1.0000
45.8000 0.9821 1.0000
45.8100 0.0000 1.0000
45.8200 0.0000 1.0000
45.8300 0.0000 1.0000
45.8400 0.0000 1.0000
45.8500 0.3341 1.0000
45.8600 0.0000 1.0000
45.8700 1.0589 1.0000
45.8800 0.0000 1.0000
45.8900 0.9716 1.0000
45.9000 0.0000 1.0000
45.9100 0.3345 1.0000
45.9200 0.0000 1.0000
45.9300 0.0000 1.0000
45.9400 0.0000 1.0000
45.9500 1.0066 1.0000
45.9600 0.0000 1.0000
45.9700 0.0000 1.0000
45.9800 0.0000 1.0000
45.9900 1.0113 1.0000
46.0000 1.0624 1.0000
46.0100 1.0059 1.0000
46.0200 0.9925 1.0000
46.0300 0.9889 1.0000
46.0400 0.0000 1.0000
46.0500 1.3368 1.0000
46.0600 0.0000 1.0000
46.0700 1.9874 1.0000
46.0800 0.0000 1.0000
46.0900 4.0499 1.0000
46.1000 2.0014 1.0000
46.1100 0.0000 1.0000
46.1200 1.9827 1.0000
46.1300 0.0000 1.0000
46.1400 1.0685 1.0000
46.1500 1.9988 1.0000
46.1600 2.0051 1.0000
46.1700 1.0174 1.0000
46.1800 2.0497 1.0000
46.1900 0.9791 1.0000
46.2000 1.0042 1.0000
46.2100 0.0000 1.0000
46.2200 0.0000 1.0000
46.2300 0.0000 1.0000
46.2400 0.0000 1.0000
46.2500 0.3288 1.0000
46.2600 0.0000 1.0000
46.2700 0.0000 1.0000
46.2800 1.0520 1.0000
46.2900 1.5520 1.0000
46.3000 0.0000 1.0000
46.3100 0.0000 1.0000
46.3200 0.9982 1.0000
46.3300 2.0127 1.0000
46.3400 0.0000 1.0000
46.3500 1.0293 1.0000
46.3600 1.9794 1.0000
46.3700 0.9943 1.0000
46.3800 0.9999 1.0000
46.3900 0.0000 1.0000
46.4000 0.9863 1.0000
46.4100 1.0185 1.0000
46.4200 0.0000 1.0000
46.4300 0.9803 1.0000
46.4400 0.3350 1.0000
46.4500 1.3733 1.0000
46.4600 1.0226 1.0000
46.4700 0.3467 1.0000
46.4800 0.0000 1.0000
46.4900 0.0000 1.0000
46.5000 1.0655 1.0000
46.5100 0.0000 1.0000
46.5200 1.0094 1.0000
46.5300 0.9759 1.0000
46.5400 1.0149 1.0000
46.5500 1.0130 1.0000
46.5600 0.9993 1.0000
46.5700 1.9718 1.0000
46.5800 0.0000 1.0000
46.5900 0.3345 1.0000
46.6000 2.0499 1.0000
46.6100 0.3251 1.0000
46.6200 2.0160 1.0000
46.6300 0.0000 1.0000
46.6400 0.0000 1.0000
46.6500 0.9759 1.0000
46.6600 1.9920 1.0000
46.6700 1.0196 1.0000
46.6800 1.9768 1.0000
46.6900 1.0235 1.0000
46.7000 1.0214 1.0000
46.7100 0.9572 1.0000
46.7200 1.3305 1.0000
46.7300 0.3465 1.0000
46.7400 0.0000 1.0000
46.7500 0.9824 1.0000
46.7600 2.4015 1.0000
46.7700 1.0041 1.0000
46.7800 0.0000 1.0000
46.7900 1.0065 1.0000
46.8000 0.0000 1.0000
46.8100 0.0000 1.0000
46.8200 0.0000 1.0000
46.8300 1.0018 1.0000
46.8400 0.0000 1.0000
46.8500 2.0259 1.0000
46.8600 0.9433 1.0000
46.8700 1.0637 1.0000
46.8800 0.9918 1.0000
46.8900 1.0211 1.0000
46.9000 0.3410 1.0000
46.9100 0.0000 1.0000
46.9200 2.0114 1.0000
46.9300 2.3736 1.0000
46.9400 0.0000 1.0000
46.9500 0.0000 1.0000
46.9600 2.0223 1.0000
46.9700 1.0045 1.0000
46.9800 2.0562 1.0000
46.9900 0.0000 1.0000
47.0000 0.0000 1.0000
47.0100 1.0442 1.0000
47.0200 1.0158 1.0000
47.0300 3.0650 1.0000
47.0400 0.0000 1.0000
47.0500 0.9639 1.0000
47.0600 1.9723 1.0000
47.0700 1.0393 1.0000
47.0800 1.3763 1.0000
47.0900 2.5747 1.0000
47.1000 0.0000 1.0000
47.1100 1.0020 1.0000
47.1200 0.0000 1.0000
47.1300 0.0000 1.0000
47.1400 0.0000 1.0000
47.1500 0.0000 1.0000
47.1600 1.0123 1.0000
47.1700 0.0000 1.0000
47.1800 0.0000 1.0000
47.1900 2.0378 1.0000
47.2000 1.3166 1.0000
47.2100 2.0046 1.0000
47.2200 1.0152 1.0000
47.2300 0.0000 1.0000
47.2400 0.0000 1.0000
47.2500 2.1108 1.0000
47.2600 1.0090 1.0000
47.2700 1.9986 1.0000
47.2800 2.3656 1.0000
47.2900 0.9844 1.0000
47.3000 1.0148 1.0000
47.3100 1.0578 1.0000
47.3200 3.3245 1.0000
47.3300 1.0219 1.0000
47.3400 0.0000 1.0000
47.3500 0.9918 1.0000
47.3600 1.0308 1.0000
47.3700 0.0000 1.0000
47.3800 1.0710 1.0000
47.3900 0.0000 1.0000
47.4000 0.0000 1.0000
47.4100 2.8351 1.0000
47.4200 0.0000 1.0000
47.4300 0.0000 1.0000
47.4400 0.9925 1.0000
47.4500 0.0000 1.0000
47.4600 2.0196 1.0000
47.4700 2.9530 1.0000
47.4800 2.0533 1.0000
47.4900 1.9835 1.0000
47.5000 0.0000 1.0000
47.5100 0.3220 1.0000
47.5200 0.3410 1.0000
47.5300 0.0000 1.0000
47.5400 0.0000 1.0000
47.5500 1.0029 1.0000
47.5600 0.0000 1.0000
47.5700 0.9564 1.0000
47.5800 1.3162 1.0000
47.5900 2.0531 1.0000
47.6000 0.0000 1.0000
47.6100 0.0000 1.0000
47.6200 3.0753 1.0000
47.6300 0.0000 1.0000
47.6400 0.9954 1.0000
47.6500 4.1062 1.0000
47.6600 0.0000 1.0000
47.6700 0.9976 1.0000
47.6800 1.0293 1.0000
47.6900 2.0169 1.0000
47.7000 0.0000 1.0000
47.7100 0.0000 1.0000
47.7200 0.0000 1.0000
47.7300 1.9670 1.0000
47.7400 2.0585 1.0000
47.7500 0.0000 1.0000
47.7600 1.0834 1.0000
47.7700 1.9485 1.0000
47.7800 0.0000 1.0000
47.7900 0.3147 1.0000
47.8000 1.0020 1.0000
47.8100 1.9818 1.0000
47.8200 0.0000 1.0000
47.8300 0.9738 1.0000
47.8400 2.0352 1.0000
47.8500 0.0000 1.0000
47.8600 0.9608 1.0000
47.8700 1.4334 1.0000
47.8800 0.0000 1.0000
47.8900 2.0271 1.0000
47.9000 0.0000 1.0000
47.9100 0.9761 1.0000
47.9200 2.9737 1.0000
47.9300 0.0000 1.0000
47.9400 0.0000 1.0000
47.9500 0.0000 1.0000
47.9600 1.0149 1.0000
47.9700 0.0000 1.0000
47.9800 0.9762 1.0000
47.9900 0.0000 1.0000
48.0000 2.0636 1.0000
48.0100 0.0000 1.0000
48.0200 1.0020 1.0000
48.0300 0.0000 1.0000
48.0400 0.0000 1.0000
48.0500 2.0599 1.0000
48.0600 3.9120 1.0000
48.0700 0.9651 1.0000
48.0800 0.0000 1.0000
48.0900 2.0978 1.0000
48.1000 1.0153 1.0000
48.1100 0.9703 1.0000
48.1200 0.0000 1.0000
48.1300 1.0464 1.0000
48.1400 0.0000 1.0000
48.1500 0.0000 1.0000
48.1600 0.0000 1.0000
48.1700 0.0000 1.0000
48.1800 0.0000 1.0000
48.1900 0.0000 1.0000
48.2000 0.0000 1.0000
48.2100 0.9969 1.0000
48.2200 0.0000 1.0000
48.2300 1.0207 1.0000
48.2400 0.0000 1.0000
48.2500 0.0000 1.0000
48.2600 1.4334 1.0000
48.2700 1.0001 1.0000
48.2800 1.0052 1.0000
48.2900 1.9959 1.0000
48.3000 1.0153 1.0000
48.3100 1.0535 1.0000
48.3200 0.0000 1.0000
48.3300 0.0000 1.0000
48.3400 0.0000 1.0000
48.3500 0.0000 1.0000
48.3600 2.9621 1.0000
48.3700 0.0000 1.0000
48.3800 0.0000 1.0000
48.3900 1.9812 1.0000
48.4000 0.0000 1.0000
48.4100 1.4955 1.0000
48.4200 0.3269 1.0000
48.4300 0.0000 1.0000
48.4400 2.0608 1.0000
48.4500 0.9859 1.0000
48.4600 0.0000 1.0000
48.4700 1.0094 1.0000
48.4800 0.9753 1.0000
48.4900 0.0000 1.0000
48.5000 0.0000 1.0000
48.5100 0.0000 1.0000
48.5200 0.0000 1.0000
48.5300 0.0000 1.0000
48.5400 1.0158 1.0000
48.5500 0.0000 1.0000
48.5600 0.0000 1.0000
48.5700 0.0000 1.0000
48.5800 0.0000 1.0000
48.5900 0.3240 1.0000
48.6000 0.9926 1.0000
48.6100 0.9911 1.0000
48.6200 3.1066 1.0000
48.6300 0.9810 1.0000
48.6400 0.0000 1.0000
48.6500 0.9875 1.0000
48.6600 3.0638 1.0000
48.6700 4.9346 1.0000
48.6800 1.9695 1.0000
48.6900 0.9513 1.0000
48.7000 0.0000 1.0000
48.7100 0.9956 1.0000
48.7200 0.0000 1.0000
48.7300 1.0301 1.0000
48.7400 2.4099 1.0000
48.7500 3.0102 1.0000
48.7600 0.9646 1.0000
48.7700 1.0486 1.0000
48.7800 1.0840 1.0000
48.7900 2.0865 1.0000
48.8000 0.9826 1.0000
48.8100 0.0000 1.0000
48.8200 0.0000 1.0000
48.8300 0.0000 1.0000
48.8400 1.9687 1.0000
48.8500 0.9937 1.0000
48.8600 0.0000 1.0000
48.8700 0.9791 1.0000
48.8800 1.9541 1.0000
48.8900 0.9745 1.0000
48.9000 0.9828 1.0000
48.9100 2.3127 1.0000
48.9200 0.0000 1.0000
48.9300 1.0042 1.0000
48.9400 1.0197 1.0000
48.9500 2.9676 1.0000
48.9600 1.0427 1.0000
48.9700 2.9746 1.0000
48.9800 0.9850 1.0000
48.9900 1.9239 1.0000
49.0000 0.0000 1.0000
49.0100 0.0000 1.0000
49.0200 1.9908 1.0000
49.0300 0.3261 1.0000
49.0400 0.0000 1.0000
49.0500 1.0364 1.0000
49.0600 1.8518 1.0000
49.0700 4.0056 1.0000
49.0800 0.0000 1.0000
49.0900 1.0396 1.0000
49.1000 0.0000 1.0000
49.1100 1.3244 1.0000
49.1200 0.9728 1.0000
49.1300 1.0463 1.0000
49.1400 1.3228 1.0000
49.1500 0.0000 1.0000
49.1600 0.0000 1.0000
49.1700 1.0259 1.0000
49.1800 1.0186 1.0000
49.1900 1.0687 1.0000
49.2000 3.5606 1.0000
49.2100 1.0193 1.0000
49.2200 3.0425 1.0000
49.2300 1.9889 1.0000
49.2400 1.0280 1.0000
49.2500 0.0000 1.0000
49.2600 1.0368 1.0000
49.2700 2.0378 1.0000
49.2800 1.9902 1.0000
49.2900 1.9703 1.0000
49.3000 0.9987 1.0000
49.3100 1.0387 1.0000
49.3200 1.0090 1.0000
49.3300 0.0000 1.0000
49.3400 0.0000 1.0000
49.3500 0.0000 1.0000
49.3600 1.0095 1.0000
49.3700 2.0500 1.0000
49.3800 0.9446 1.0000
49.3900 0.0000 1.0000
49.4000 0.0000 1.0000
49.4100 0.0000 1.0000
49.4200 0.0000 1.0000
49.4300 0.0000 1.0000
49.4400 0.0000 1.0000
49.4500 1.3044 1.0000
49.4600 0.0000 1.0000
49.4700 2.9169 1.0000
49.4800 0.0000 1.0000
49.4900 0.0000 1.0000
49.5000 0.0000 1.0000
49.5100 0.0000 1.0000
49.5200 0.9999 1.0000
49.5300 1.0405 1.0000
49.5400 1.0045 1.0000
49.5500 0.0000 1.0000
49.5600 3.0460 1.0000
49.5700 0.9869 1.0000
49.5800 0.0000 1.0000
49.5900 3.1307 1.0000
49.6000 2.2840 1.0000
49.6100 1.0336 1.0000
49.6200 1.0623 1.0000
49.6300 0.9976 1.0000
49.6400 0.0000 1.0000
49.6500 0.0000 1.0000
49.6600 0.9813 1.0000
49.6700 0.9976 1.0000
49.6800 2.0903 1.0000
49.6900 1.2918 1.0000
49.7000 0.0000 1.0000
49.7100 0.0000 1.0000
49.7200 2.0657 1.0000
49.7300 0.0000 1.0000
49.7400 0.0000 1.0000
49.7500 1.0338 1.0000
49.7600 0.0000 1.0000
49.7700 0.0000 1.0000
49.7800 1.0421 1.0000
49.7900 1.3152 1.0000
49.8000 1.3441 1.0000
49.8100 1.0314 1.0000
49.8200 0.0000 1.0000
49.8300 1.0552 1.0000
49.8400 1.0218 1.0000
49.8500 2.0430 1.0000
49.8600 0.0000 1.0000
49.8700 1.0026 1.0000
49.8800 1.9772 1.0000
49.8900 0.0000 1.0000
49.9000 0.0000 1.0000
49.9100 0.9801 1.0000
49.9200 0.0000 1.0000
49.9300 3.0411 1.0000
49.9400 1.9994 1.0000
49.9500 0.9843 1.0000
49.9600 1.4955 1.0000
49.9700 2.4572 1.0000
49.9800 0.9956 1.0000
49.9900 2.0538 1.0000
50.0000 0.0000 1.0000
50.0100 2.0634 1.0000
50.0200 0.9814 1.0000
50.0300 0.0000 1.0000
50.0400 0.9833 1.0000
50.0500 2.9929 1.0000
50.0600 0.0000 1.0000
50.0700 1.0560 1.0000
50.0800 1.0124 1.0000
50.0900 0.0000 1.0000
50.1000 0.0000 1.0000
50.1100 0.0000 1.0000
50.1200 0.0000 1.0000
50.1300 0.9976 1.0000
50.1400 0.3419 1.0000
50.1500 0.9668 1.0000
50.1600 0.0000 1.0000
50.1700 0.0000 1.0000
50.1800 0.0000 1.0000
50.1900 0.9816 1.0000
50.2000 1.0692 1.0000
50.2100 1.0063 1.0000
50.2200 0.0000 1.0000
50.2300 0.0000 1.0000
50.2400 0.0000 1.0000
50.2500 0.9942 1.0000
50.2600 2.0291 1.0000
50.2700 0.0000 1.0000
50.2800 3.9666 1.0000
50.2900 0.9749 1.0000
50.3000 2.0022 1.0000
50.3100 1.0045 1.0000
50.3200 0.9804 1.0000
50.3300 3.3263 1.0000
50.3400 1.9912 1.0000
50.3500 0.0000 1.0000
50.3600 1.9991 1.0000
50.3700 0.0000 1.0000
50.3800 0.9630 1.0000
50.3900 2.0299 1.0000
50.4000 0.0000 1.0000
50.4100 0.0000 1.0000
50.4200 2.9434 1.0000
50.4300 1.0131 1.0000
50.4400 2.0726 1.0000
50.4500 2.0136 1.0000
50.4600 1.0161 1.0000
50.4700 1.3299 1.0000
50.4800 1.9822 1.0000
50.4900 0.3547 1.0000
50.5000 2.5435 1.0000
50.5100 0.9945 1.0000
50.5200 0.0000 1.0000
50.5300 0.3406 1.0000
50.5400 1.0415 1.0000
50.5500 3.0374 1.0000
50.5600 3.1372 1.0000
50.5700 3.0662 1.0000
50.5800 0.0000 1.0000
50.5900 1.9632 1.0000
50.6000 1.9387 1.0000
50.6100 2.3466 1.0000
50.6200 0.0000 1.0000
50.6300 1.0502 1.0000
50.6400 2.4513 1.0000
50.6500 1.0388 1.0000
50.6600 2.9984 1.0000
50.6700 0.0000 1.0000
50.6800 0.0000 1.0000
50.6900 0.0000 1.0000
50.7000 0.0000 1.0000
50.7100 1.0462 1.0000
50.7200 0.0000 1.0000
50.7300 1.0407 1.0000
50.7400 0.0000 1.0000
50.7500 1.3420 1.0000
50.7600 1.9821 1.0000
50.7700 0.9758 1.0000
50.7800 0.0000 1.0000
50.7900 0.0000 1.0000
50.8000 0.0000 1.0000
50.8100 1.9730 1.0000
50.8200 0.9912 1.0000
50.8300 0.3393 1.0000
50.8400 2.0974 1.0000
50.8500 0.0000 1.0000
50.8600 0.0000 1.0000
50.8700 0.0000 1.0000
50.8800 1.0133 1.0000
50.8900 0.0000 1.0000
50.9000 1.0226 1.0000
50.9100 3.9725 1.0000
50.9200 0.0000 1.0000
50.9300 0.9845 1.0000
50.9400 0.0000 1.0000
50.9500 1.0194 1.0000
50.9600 0.0000 1.0000
50.9700 0.0000 1.0000
50.9800 0.0000 1.0000
50.9900 2.9534 1.0000
51.0000 1.2768 1.0000
51.0100 0.3341 1.0000
51.0200 0.0000 1.0000
51.0300 1.3190 1.0000
51.0400 2.0781 1.0000
51.0500 0.9639 1.0000
51.0600 0.9884 1.0000
51.0700 0.0000 1.0000
51.0800 1.0259 1.0000
51.0900 1.0254 1.0000
51.1000 0.0000 1.0000
51.1100 1.0033 1.0000
51.1200 1.0264 1.0000
51.1300 0.0000 1.0000
51.1400 0.0000 1.0000
51.1500 0.0000 1.0000
51.1600 0.0000 1.0000
51.1700 0.9882 1.0000
51.1800 0.0000 1.0000
51.1900 0.0000 1.0000
51.2000 2.0599 1.0000
51.2100 0.9989 1.0000
51.2200 0.9667 1.0000
51.2300 0.9826 1.0000
51.2400 0.9985 1.0000
51.2500 0.0000 1.0000
51.2600 1.0047 1.0000
51.2700 1.0520 1.0000
51.2800 2.0099 1.0000
51.2900 1.0432 1.0000
51.3000 3.0348 1.0000
51.3100 1.0520 1.0000
51.3200 1.0226 1.0000
51.3300 0.0000 1.0000
51.3400 1.9773 1.0000
51.3500 0.9921 1.0000
51.3600 2.5398 1.0000
51.3700 0.0000 1.0000
51.3800 0.0000 1.0000
51.3900 1.9627 1.0000
51.4000 0.0000 1.0000
51.4100 0.9633 1.0000
51.4200 1.9603 1.0000
51.4300 0.0000 1.0000
51.4400 4.0510 1.0000
51.4500 0.0000 1.0000
51.4600 0.3288 1.0000
51.4700 1.9726 1.0000
51.4800 0.0000 1.0000
51.4900 3.0466 1.0000
51.5000 0.0000 1.0000
51.5100 0.0000 1.0000
51.5200 1.9647 1.0000
51.5300 1.0452 1.0000
51.5400 0.9492 1.0000
51.5500 1.0033 1.0000
51.5600 1.0631 1.0000
51.5700 1.9865 1.0000
51.5800 0.3310 1.0000
51.5900 1.6270 1.0000
51.6000 0.0000 1.0000
51.6100 1.9983 1.0000
51.6200 3.2657 1.0000
51.6300 0.0000 1.0000
51.6400 1.0467 1.0000
51.6500 0.0000 1.0000
51.6600 0.0000 1.0000
51.6700 2.0129 1.0000
51.6800 1.0082 1.0000
51.6900 0.0000 1.0000
51.7000 1.0274 1.0000
51.7100 2.0674 1.0000
51.7200 1.0413 1.0000
51.7300 0.9981 1.0000
51.7400 0.9846 1.0000
51.7500 1.0335 1.0000
51.7600 0.0000 1.0000
51.7700 0.9857 1.0000
51.7800 1.0007 1.0000
51.7900 0.0000 1.0000
51.8000 0.9446 1.0000
51.8100 0.0000 1.0000
51.8200 2.0238 1.0000
51.8300 1.0123 1.0000
51.8400 1.0618 1.0000
51.8500 1.0197 1.0000
51.8600 0.0000 1.0000
51.8700 0.1433 1.0000
51.8800 0.0000 1.0000
51.8900 1.3158 1.0000
51.9000 3.0240 1.0000
51.9100 0.0000 1.0000
51.9200 0.0000 1.0000
51.9300 1.3541 1.0000
51.9400 2.0047 1.0000
51.9500 0.9852 1.0000
51.9600 0.0000 1.0000
51.9700 0.3407 1.0000
51.9800 1.9838 1.0000
51.9900 0.0000 1.0000
52.0000 0.0000 1.0000
52.0100 0.0000 1.0000
52.0200 2.8045 1.0000
52.0300 0.0000 1.0000
52.0400 1.0163 1.0000
52.0500 2.0317 1.0000
52.0600 1.0106 1.0000
52.0700 1.0123 1.0000
52.0800 0.3197 1.0000
52.0900 2.0418 1.0000
52.1000 1.0006 1.0000
52.1100 1.0745 1.0000
52.1200 0.9956 1.0000
52.1300 2.3170 1.0000
52.1400 1.5284 1.0000
52.1500 0.0000 1.0000
52.1600 1.0271 1.0000
52.1700 2.5733 1.0000
52.1800 0.0000 1.0000
52.1900 3.0634 1.0000
52.2000 0.0000 1.0000
52.2100 0.0000 1.0000
52.2200 2.2772 1.0000
52.2300 0.0000 1.0000
52.2400 0.0000 1.0000
52.2500 0.0000 1.0000
52.2600 0.9690 1.0000
52.2700 2.0514 1.0000
52.2800 0.0000 1.0000
52.2900 0.9935 1.0000
52.3000 1.0226 1.0000
52.3100 1.0213 1.0000
52.3200 1.0330 1.0000
52.3300 1.3322 1.0000
52.3400 0.9643 1.0000
52.3500 0.3274 1.0000
52.3600 2.0324 1.0000
52.3700 2.9914 1.0000
52.3800 0.0000 1.0000
52.3900 0.0000 1.0000
52.4000 1.0048 1.0000
52.4100 0.0000 1.0000
52.4200 1.0079 1.0000
52.4300 0.9945 1.0000
52.4400 2.0197 1.0000
52.4500 0.0000 1.0000
52.4600 0.0000 1.0000
52.4700 0.0000 1.0000
52.4800 0.0000 1.0000
52.4900 0.0000 1.0000
52.5000 2.0046 1.0000
52.5100 0.0000 1.0000
52.5200 5.4633 1.0000
52.5300 0.9940 1.0000
52.5400 0.9526 1.0000
52.5500 0.9934 1.0000
52.5600 1.3841 1.0000
52.5700 0.9868 1.0000
52.5800 0.9912 1.0000
52.5900 0.0000 1.0000
52.6000 1.0100 1.0000
52.6100 1.0527 1.0000
52.6200 1.9892 1.0000
52.6300 0.0000 1.0000
52.6400 1.3226 1.0000
52.6500 0.0000 1.0000
52.6600 1.0090 1.0000
52.6700 0.0000 1.0000
52.6800 0.0000 1.0000
52.6900 0.0000 1.0000
52.7000 0.0000 1.0000
52.7100 0.0000 1.0000
52.7200 1.0029 1.0000
52.7300 1.0196 1.0000
52.7400 3.0093 1.0000
52.7500 1.0123 1.0000
52.7600 0.0000 1.0000
52.7700 0.0000 1.0000
52.7800 3.1858 1.0000
52.7900 1.0158 1.0000
52.8000 0.9935 1.0000
52.8100 2.8705 1.0000
52.8200 0.0000 1.0000
52.8300 1.0094 1.0000
52.8400 2.0726 1.0000
52.8500 0.0000 1.0000
52.8600 0.0000 1.0000
52.8700 1.2989 1.0000
52.8800 4.0304 1.0000
52.8900 1.0279 1.0000
52.9000 2.0206 1.0000
52.9100 0.0000 1.0000
52.9200 1.9829 1.0000
52.9300 1.0172 1.0000
52.9400 0.0000 1.0000
52.9500 1.9966 1.0000
52.9600 0.0000 1.0000
52.9700 0.0000 1.0000
52.9800 1.0124 1.0000
52.9900 1.0158 1.0000
53.0000 2.0160 1.0000
53.0100 0.0000 1.0000
53.0200 0.0000 1.0000
53.0300 2.3279 1.0000
53.0400 0.0000 1.0000
53.0500 1.0481 1.0000
53.0600 0.0000 1.0000
53.0700 0.0000 1.0000
53.0800 0.0000 1.0000
53.0900 0.0000 1.0000
53.1000 0.0000 1.0000
53.1100 0.9940 1.0000
53.1200 2.9668 1.0000
53.1300 1.3111 1.0000
53.1400 0.9877 1.0000
53.1500 1.3327 1.0000
53.1600 0.0000 1.0000
53.1700 0.0000 1.0000
53.1800 0.0000 1.0000
53.1900 0.0000 1.0000
53.2000 1.0241 1.0000
53.2100 1.6304 1.0000
53.2200 0.9998 1.0000
53.2300 0.0000 1.0000
53.2400 1.9866 1.0000
53.2500 0.0000 1.0000
53.2600 1.0966 1.0000
53.2700 1.0032 1.0000
53.2800 0.0000 1.0000
53.2900 0.3382 1.0000
53.3000 0.9989 1.0000
53.3100 0.0000 1.0000
53.3200 2.0411 1.0000
53.3300 0.3227 1.0000
53.3400 0.0000 1.0000
53.3500 0.0000 1.0000
53.3600 0.0000 1.0000
53.3700 0.9997 1.0000
53.3800 0.3234 1.0000
53.3900 1.0098 1.0000
53.4000 0.9927 1.0000
53.4100 0.0000 1.0000
53.4200 0.0000 1.0000
53.4300 2.0753 1.0000
53.4400 1.9970 1.0000
53.4500 0.0000 1.0000
53.4600 1.3390 1.0000
53.4700 0.6698 1.0000
53.4800 0.3236 1.0000
53.4900 2.0261 1.0000
53.5000 0.0000 1.0000
53.5100 3.0968 1.0000
53.5200 0.0000 1.0000
53.5300 0.3243 1.0000
53.5400 0.0000 1.0000
53.5500 0.0000 1.0000
53.5600 3.1146 1.0000
53.5700 1.0188 1.0000
53.5800 0.9720 1.0000
53.5900 0.0000 1.0000
53.6000 0.0000 1.0000
53.6100 0.0000 1.0000
53.6200 0.0000 1.0000
53.6300 0.9627 1.0000
53.6400 0.9621 1.0000
53.6500 2.0071 1.0000
53.6600 1.0123 1.0000
53.6700 0.0000 1.0000
53.6800 0.0000 1.0000
53.6900 1.0314 1.0000
53.7000 1.0001 1.0000
53.7100 0.0000 1.0000
53.7200 0.0000 1.0000
53.7300 1.0052 1.0000
53.7400 0.0000 1.0000
53.7500 0.0000 1.0000
53.7600 0.3455 1.0000
53.7700 0.0000 1.0000
53.7800 0.9858 1.0000
53.7900 0.0000 1.0000
53.8000 0.0000 1.0000
53.8100 2.0425 1.0000
53.8200 1.0637 1.0000
53.8300 0.0000 1.0000
53.8400 0.9630 1.0000
53.8500 0.3306 1.0000
53.8600 2.0129 1.0000
53.8700 0.0000 1.0000
53.8800 1.9685 1.0000
53.8900 0.0000 1.0000
53.9000 3.0798 1.0000
53.9100 1.3324 1.0000
53.9200 0.0000 1.0000
53.9300 0.0000 1.0000
53.9400 0.0000 1.0000
53.9500 1.0388 1.0000
53.9600 0.0000 1.0000
53.9700 0.3197 1.0000
53.9800 0.0000 1.0000
53.9900 2.0725 1.0000
54.0000 2.0618 1.0000
54.0100 0.0000 1.0000
54.0200 0.0000 1.0000
54.0300 0.0000 1.0000
54.0400 2.0473 1.0000
54.0500 1.9979 1.0000
54.0600 0.0000 1.0000
54.0700 0.9977 1.0000
54.0800 2.0216 1.0000
54.0900 0.0000 1.0000
54.1000 0.0000 1.0000
54.1100 2.0285 1.0000
54.1200 1.0377 1.0000
54.1300 0.0000 1.0000
54.1400 2.0052 1.0000
54.1500 1.0655 1.0000
54.1600 3.2985 1.0000
54.1700 0.0000 1.0000
54.1800 1.0248 1.0000
54.1900 1.8404 1.0000
54.2000 1.3491 1.0000
54.2100 0.0000 1.0000
54.2200 1.0102 1.0000
54.2300 0.0000 1.0000
54.2400 0.0000 1.0000
54.2500 0.0000 1.0000
54.2600 0.0000 1.0000
54.2700 1.6279 1.0000
54.2800 0.0000 1.0000
54.2900 0.9865 1.0000
54.3000 1.0098 1.0000
54.3100 0.0000 1.0000
54.3200 0.0000 1.0000
54.3300 1.0193 1.0000
54.3400 0.0000 1.0000
54.3500 1.9696 1.0000
54.3600 0.0000 1.0000
54.3700 0.0000 1.0000
54.3800 0.0000 1.0000
54.3900 0.0000 1.0000
54.4000 3.0521 1.0000
54.4100 0.9644 1.0000
54.4200 0.9857 1.0000
54.4300 0.0000 1.0000
54.4400 2.8742 1.0000
54.4500 0.9526 1.0000
54.4600 1.4120 1.0000
54.4700 2.1021 1.0000
54.4800 0.3407 1.0000
54.4900 2.3940 1.0000
54.5000 1.0218 1.0000
54.5100 0.9756 1.0000
54.5200 0.9934 1.0000
54.5300 1.0394 1.0000
54.5400 0.0000 1.0000
54.5500 0.0000 1.0000
54.5600 0.0000 1.0000
54.5700 0.9860 1.0000
54.5800 3.0234 1.0000
54.5900 1.0219 1.0000
54.6000 2.1198 1.0000
54.6100 0.0000 1.0000
54.6200 0.9658 1.0000
54.6300 0.3249 1.0000
54.6400 2.9554 1.0000
54.6500 0.0000 1.0000
54.6600 1.0523 1.0000
54.6700 1.0372 1.0000
54.6800 0.0000 1.0000
54.6900 0.9804 1.0000
54.7000 0.0000 1.0000
54.7100 0.9996 1.0000
54.7200 0.9896 1.0000
54.7300 0.9833 1.0000
54.7400 0.0000 1.0000
54.7500 1.0418 1.0000
54.7600 1.9706 1.0000
54.7700 1.0254 1.0000
54.7800 0.9636 1.0000
54.7900 0.0000 1.0000
54.8000 0.0000 1.0000
54.8100 0.9962 1.0000
54.8200 2.0202 1.0000
54.8300 1.9737 1.0000
54.8400 0.0000 1.0000
54.8500 0.9921 1.0000
54.8600 0.9868 1.0000
54.8700 1.0384 1.0000
54.8800 0.3314 1.0000
54.8900 0.3438 1.0000
54.9000 0.0000 1.0000
54.9100 0.0000 1.0000
54.9200 1.0216 1.0000
54.9300 0.0000 1.0000
54.9400 1.0779 1.0000
54.9500 1.0487 1.0000
54.9600 1.3059 1.0000
54.9700 0.9845 1.0000
54.9800 1.9836 1.0000
54.9900 0.0000 1.0000
55.0000 0.0000 1.0000
55.0100 1.9978 1.0000
55.0200 0.0000 1.0000
55.0300 0.0000 1.0000
55.0400 0.9899 1.0000
55.0500 1.0026 1.0000
55.0600 2.9805 1.0000
55.0700 1.0023 1.0000
55.0800 3.0454 1.0000
55.0900 0.0000 1.0000
55.1000 0.9902 1.0000
55.1100 0.0000 1.0000
55.1200 0.9969 1.0000
55.1300 0.0000 1.0000
55.1400 0.0000 1.0000
55.1500 0.0000 1.0000
55.1600 0.0000 1.0000
55.1700 0.0000 1.0000
55.1800 1.9876 1.0000
55.1900 1.0172 1.0000
55.2000 1.9913 1.0000
55.2100 1.0665 1.0000
55.2200 1.0155 1.0000
55.2300 1.0300 1.0000
55.2400 2.0360 1.0000
55.2500 2.0097 1.0000
55.2600 2.3572 1.0000
55.2700 0.0000 1.0000
55.2800 2.0147 1.0000
55.2900 0.0000 1.0000
55.3000 0.0000 1.0000
55.3100 0.0000 1.0000
55.3200 2.0969 1.0000
55.3300 0.9396 1.0000
55.3400 0.9945 1.0000
55.3500 0.0000 1.0000
55.3600 3.4076 1.0000
55.3700 0.9870 1.0000
55.3800 0.0000 1.0000
55.3900 0.0000 1.0000
55.4000 1.0667 1.0000
55.4100 0.0000 1.0000
55.4200 0.3403 1.0000
55.4300 1.0572 1.0000
55.4400 1.0413 1.0000
55.4500 0.0000 1.0000
55.4600 0.0000 1.0000
55.4700 1.0299 1.0000
55.4800 0.9945 1.0000
55.4900 0.0000 1.0000
55.5000 0.9627 1.0000
55.5100 0.9976 1.0000
55.5200 0.0000 1.0000
55.5300 3.0970 1.0000
55.5400 0.9775 1.0000
55.5500 1.3056 1.0000
55.5600 2.9625 1.0000
55.5700 1.0080 1.0000
55.5800 0.9630 1.0000
55.5900 2.3541 1.0000
55.6000 3.0018 1.0000
55.6100 4.9240 1.0000
55.6200 0.0000 1.0000
55.6300 0.0000 1.0000
55.6400 1.0199 1.0000
55.6500 0.9758 1.0000
55.6600 0.3370 1.0000
55.6700 0.0000 1.0000
55.6800 1.0153 1.0000
55.6900 1.0089 1.0000
55.7000 1.3717 1.0000
55.7100 0.0000 1.0000
55.7200 1.3233 1.0000
55.7300 1.0547 1.0000
55.7400 1.0362 1.0000
55.7500 0.0000 1.0000
55.7600 0.0000 1.0000
55.7700 0.9396 1.0000
55.7800 1.0605 1.0000
55.7900 0.5491 1.0000
55.8000 1.0618 1.0000
55.8100 1.0240 1.0000
55.8200 0.0000 1.0000
55.8300 0.9801 1.0000
55.8400 1.0055 1.0000
55.8500 0.9846 1.0000
55.8600 0.9995 1.0000
55.8700 0.3251 1.0000
55.8800 0.5703 1.0000
55.8900 0.0000 1.0000
55.9000 1.3211 1.0000
55.9100 3.3544 1.0000
55.9200 1.0917 1.0000
55.9300 2.0571 1.0000
55.9400 2.0116 1.0000
55.9500 3.9442 1.0000
55.9600 0.9676 1.0000
55.9700 3.1008 1.0000
55.9800 0.0000 1.0000
55.9900 1.9435 1.0000
56.0000 4.0160 1.0000
56.0100 1.3161 1.0000
56.0200 0.0000 1.0000
56.0300 0.0000 1.0000
56.0400 0.0000 1.0000
56.0500 0.9699 1.0000
56.0600 2.0621 1.0000
56.0700 1.3817 1.0000
56.0800 0.0000 1.0000
56.0900 0.0000 1.0000
56.1000 2.0479 1.0000
56.1100 0.0000 1.0000
56.1200 0.0000 1.0000
56.1300 1.9937 1.0000
56.1400 0.0000 1.0000
56.1500 0.0000 1.0000
56.1600 2.0996 1.0000
56.1700 0.9965 1.0000
56.1800 1.9779 1.0000
56.1900 1.0301 1.0000
56.2000 1.0421 1.0000
56.2100 0.0000 1.0000
56.2200 1.0034 1.0000
56.2300 0.9775 1.0000
56.2400 0.0000 1.0000
56.2500 1.3427 1.0000
56.2600 0.3274 1.0000
56.2700 0.3465 1.0000
56.2800 1.9561 1.0000
56.2900 0.9801 1.0000
56.3000 0.0000 1.0000
56.3100 2.0075 1.0000
56.3200 0.0000 1.0000
56.3300 0.9921 1.0000
56.3400 0.9802 1.0000
56.3500 0.9914 1.0000
56.3600 0.0000 1.0000
56.3700 1.0195 1.0000
56.3800 0.9962 1.0000
56.3900 0.0000 1.0000
56.4000 0.0000 1.0000
56.4100 0.0000 1.0000
56.4200 1.0203 1.0000
56.4300 0.0000 1.0000
56.4400 0.0000 1.0000
56.4500 0.0000 1.0000
56.4600 0.0000 1.0000
56.4700 2.0226 1.0000
56.4800 0.0000 1.0000
56.4900 3.0557 1.0000
56.5000 0.9905 1.0000
56.5100 0.0000 1.0000
56.5200 0.0000 1.0000
56.5300 2.3013 1.0000
56.5400 0.9687 1.0000
56.5500 0.0000 1.0000
56.5600 0.0000 1.0000
56.5700 2.0761 1.0000
56.5800 1.1257 1.0000
56.5900 3.0258 1.0000
56.6000 0.0000 1.0000
56.6100 1.9751 1.0000
56.6200 1.0041 1.0000
56.6300 0.0000 1.0000
56.6400 0.0000 1.0000
56.6500 0.9932 1.0000
56.6600 1.0637 1.0000
56.6700 0.0000 1.0000
56.6800 0.0000 1.0000
56.6900 0.0000 1.0000
56.7000 0.0000 1.0000
56.7100 0.0000 1.0000
56.7200 0.9608 1.0000
56.7300 3.9990 1.0000
56.7400 0.0000 1.0000
56.7500 0.0000 1.0000
56.7600 0.9824 1.0000
56.7700 1.9787 1.0000
56.7800 0.0000 1.0000
56.7900 1.9943 1.0000
56.8000 0.0000 1.0000
56.8100 0.0000 1.0000
56.8200 1.0142 1.0000
56.8300 1.0114 1.0000
56.8400 0.3281 1.0000
56.8500 2.4046 1.0000
56.8600 3.0004 1.0000
56.8700 0.0000 1.0000
56.8800 0.9998 1.0000
56.8900 2.0634 1.0000
56.9000 0.0000 1.0000
56.9100 1.0388 1.0000
56.9200 0.0000 1.0000
56.9300 2.0734 1.0000
56.9400 0.0000 1.0000
56.9500 1.9623 1.0000
56.9600 0.9861 1.0000
56.9700 0.0000 1.0000
56.9800 1.0133 1.0000
56.9900 1.0399 1.0000
57.0000 0.3253 1.0000
57.0100 2.0610 1.0000
57.0200 1.9932 1.0000
57.0300 0.9622 1.0000
57.0400 1.0074 1.0000
57.0500 0.0000 1.0000
57.0600 1.0384 1.0000
57.0700 0.0000 1.0000
57.0800 0.9639 1.0000
57.0900 2.0545 1.0000
57.1000 1.0268 1.0000
57.1100 0.0000 1.0000
57.1200 0.0000 1.0000
57.1300 0.0000 1.0000
57.1400 0.0000 1.0000
57.1500 0.9637 1.0000
57.1600 1.0572 1.0000
57.1700 1.3261 1.0000
57.1800 2.0068 1.0000
57.1900 0.0000 1.0000
57.2000 0.0000 1.0000
57.2100 0.0000 1.0000
57.2200 2.0058 1.0000
57.2300 0.0000 1.0000
57.2400 3.3726 1.0000
57.2500 0.0000 1.0000
57.2600 2.0181 1.0000
57.2700 0.9761 1.0000
57.2800 1.0142 1.0000
57.2900 2.0324 1.0000
57.3000 0.0000 1.0000
57.3100 0.0000 1.0000
57.3200 2.0458 1.0000
57.3300 2.3046 1.0000
57.3400 0.0000 1.0000
57.3500 1.0050 1.0000
57.3600 2.0369 1.0000
57.3700 0.0000 1.0000
57.3800 0.0000 1.0000
57.3900 0.0000 1.0000
57.4000 2.0494 1.0000
57.4100 0.0000 1.0000
57.4200 0.9651 1.0000
57.4300 0.0000 1.0000
57.4400 0.0000 1.0000
57.4500 2.0250 1.0000
57.4600 0.0000 1.0000
57.4700 2.0708 1.0000
57.4800 0.9950 1.0000
57.4900 0.0000 1.0000
57.5000 1.0335 1.0000
57.5100 2.0062 1.0000
57.5200 2.9246 1.0000
57.5300 0.9999 1.0000
57.5400 0.0000 1.0000
57.5500 0.0000 1.0000
57.5600 1.0048 1.0000
57.5700 3.0413 1.0000
57.5800 1.3498 1.0000
57.5900 0.0000 1.0000
57.6000 0.0000 1.0000
57.6100 0.0000 1.0000
57.6200 1.0033 1.0000
57.6300 0.9938 1.0000
57.6400 0.0000 1.0000
57.6500 0.3356 1.0000
57.6600 1.0165 1.0000
57.6700 2.0225 1.0000
57.6800 1.0432 1.0000
57.6900 2.9833 1.0000
57.7000 3.5421 1.0000
57.7100 0.0000 1.0000
57.7200 3.9748 1.0000
57.7300 3.9341 1.0000
57.7400 2.0326 1.0000
57.7500 0.0000 1.0000
57.7600 0.0000 1.0000
57.7700 1.0152 1.0000
57.7800 2.0139 1.0000
57.7900 1.0054 1.0000
57.8000 1.0461 1.0000
57.8100 1.0277 1.0000
57.8200 0.9630 1.0000
57.8300 0.0000 1.0000
57.8400 1.9968 1.0000
57.8500 0.9832 1.0000
57.8600 1.0130 1.0000
57.8700 0.0000 1.0000
57.8800 1.0301 1.0000
57.8900 0.0000 1.0000
57.9000 2.1129 1.0000
57.9100 0.0000 1.0000
57.9200 1.3318 1.0000
57.9300 1.0054 1.0000
57.9400 2.3597 1.0000
57.9500 0.9620 1.0000
57.9600 0.0000 1.0000
57.9700 0.0000 1.0000
57.9800 1.3246 1.0000
57.9900 1.9815 1.0000
58.0000 0.0000 1.0000
58.0100 0.0000 1.0000
58.0200 0.0000 1.0000
58.0300 1.3474 1.0000
58.0400 1.0337 1.0000
58.0500 0.0000 1.0000
58.0600 1.0308 1.0000
58.0700 2.0296 1.0000
58.0800 0.0000 1.0000
58.0900 2.9731 1.0000
58.1000 2.9967 1.0000
58.1100 0.0000 1.0000
58.1200 3.0299 1.0000
58.1300 0.0000 1.0000
58.1400 0.9775 1.0000
58.1500 1.9366 1.0000
58.1600 0.0000 1.0000
58.1700 0.0000 1.0000
58.1800 0.0000 1.0000
58.1900 0.9949 1.0000
58.2000 0.9492 1.0000
58.2100 1.0107 1.0000
58.2200 0.0000 1.0000
58.2300 0.0000 1.0000
58.2400 1.0015 1.0000
58.2500 1.0464 1.0000
58.2600 1.9286 1.0000
58.2700 0.9993 1.0000
58.2800 0.0000 1.0000
58.2900 0.0000 1.0000
58.3000 1.0226 1.0000
58.3100 0.9663 1.0000
58.3200 3.1485 1.0000
58.3300 3.3928 1.0000
58.3400 1.0464 1.0000
58.3500 0.0000 1.0000
58.3600 2.0347 1.0000
58.3700 1.0387 1.0000
58.3800 0.9943 1.0000
58.3900 1.9933 1.0000
58.4000 0.0000 1.0000
58.4100 1.6882 1.0000
58.4200 1.0043 1.0000
58.4300 1.3817 1.0000
58.4400 0.0000 1.0000
58.4500 0.0000 1.0000
58.4600 2.9870 1.0000
58.4700 0.0000 1.0000
58.4800 1.1105 1.0000
58.4900 0.0000 1.0000
58.5000 1.1308 1.0000
58.5100 2.0522 1.0000
58.5200 3.0262 1.0000
58.5300 2.9519 1.0000
58.5400 1.0510 1.0000
58.5500 2.1266 1.0000
58.5600 0.0000 1.0000
58.5700 0.0000 1.0000
58.5800 2.0362 1.0000
58.5900 2.0469 1.0000
58.6000 1.9756 1.0000
58.6100 1.9833 1.0000
58.6200 1.9653 1.0000
58.6300 0.0000 1.0000
58.6400 0.3455 1.0000
58.6500 1.9689 1.0000
58.6600 0.9857 1.0000
58.6700 1.0219 1.0000
58.6800 0.0000 1.0000
58.6900 1.0363 1.0000
58.7000 1.5105 1.0000
58.7100 0.0000 1.0000
58.7200 0.0000 1.0000
58.7300 1.9871 1.0000
58.7400 0.0000 1.0000
58.7500 0.9425 1.0000
58.7600 2.0057 1.0000
58.7700 0.0000 1.0000
58.7800 2.3872 1.0000
58.7900 0.9897 1.0000
58.8000 0.9768 1.0000
58.8100 1.0525 1.0000
58.8200 1.0655 1.0000
58.8300 1.9305 1.0000
58.8400 0.9876 1.0000
58.8500 0.0000 1.0000
58.8600 1.9632 1.0000
58.8700 0.0000 1.0000
58.8800 0.0000 1.0000
58.8900 2.0696 1.0000
58.9000 0.0000 1.0000
58.9100 3.0425 1.0000
58.9200 0.9601 1.0000
58.9300 0.9674 1.0000
58.9400 3.0758 1.0000
58.9500 0.0000 1.0000
58.9600 3.4102 1.0000
58.9700 1.3689 1.0000
58.9800 2.0726 1.0000
58.9900 0.9982 1.0000
59.0000 0.0000 1.0000
59.0100 2.2589 1.0000
59.0200 4.0242 1.0000
59.0300 0.0000 1.0000
59.0400 0.0000 1.0000
59.0500 1.0537 1.0000
59.0600 1.0312 1.0000
59.0700 0.0000 1.0000
59.0800 3.0984 1.0000
59.0900 0.0000 1.0000
59.1000 0.9971 1.0000
59.1100 1.2828 1.0000
59.1200 0.0000 1.0000
59.1300 2.2003 1.0000
59.1400 3.4379 1.0000
59.1500 0.0000 1.0000
59.1600 1.0315 1.0000
59.1700 1.9619 1.0000
59.1800 0.0000 1.0000
59.1900 2.0079 1.0000
59.2000 0.9911 1.0000
59.2100 2.9703 1.0000
59.2200 3.9781 1.0000
59.2300 0.0000 1.0000
59.2400 0.0000 1.0000
59.2500 2.3482 1.0000
59.2600 1.0092 1.0000
59.2700 0.0000 1.0000
59.2800 0.0000 1.0000
59.2900 1.4468 1.0000
59.3000 0.9967 1.0000
59.3100 0.0000 1.0000
59.3200 2.0060 1.0000
59.3300 1.0097 1.0000
59.3400 0.9947 1.0000
59.3500 1.0388 1.0000
59.3600 2.0273 1.0000
59.3700 0.9857 1.0000
59.3800 2.0308 1.0000
59.3900 0.0000 1.0000
59.4000 1.0089 1.0000
59.4100 1.0097 1.0000
59.4200 0.9639 1.0000
59.4300 0.0000 1.0000
59.4400 0.0000 1.0000
59.4500 0.0000 1.0000
59.4600 1.0123 1.0000
59.4700 2.9756 1.0000
59.4800 0.0000 1.0000
59.4900 0.9734 1.0000
59.5000 0.9924 1.0000
59.5100 1.3537 1.0000
59.5200 2.0775 1.0000
59.5300 2.0481 1.0000
59.5400 1.0487 1.0000
59.5500 1.0596 1.0000
59.5600 0.0000 1.0000
59.5700 2.0778 1.0000
59.5800 1.0306 1.0000
59.5900 2.4937 1.0000
59.6000 2.0519 1.0000
59.6100 2.0308 1.0000
59.6200 1.0206 1.0000
59.6300 1.9913 1.0000
59.6400 0.0000 1.0000
59.6500 0.9976 1.0000
59.6600 1.0439 1.0000
59.6700 0.0000 1.0000
59.6800 1.9840 1.0000
59.6900 0.9821 1.0000
59.7000 1.9559 1.0000
59.7100 0.9996 1.0000
59.7200 1.0432 1.0000
59.7300 3.9304 1.0000
59.7400 0.0000 1.0000
59.7500 2.0062 1.0000
59.7600 0.3276 1.0000
59.7700 1.9888 1.0000
59.7800 0.0000 1.0000
59.7900 1.9816 1.0000
59.8000 0.9460 1.0000
59.8100 0.0000 1.0000
59.8200 1.0675 1.0000
59.8300 1.0048 1.0000
59.8400 2.0000 1.0000
59.8500 1.9993 1.0000
59.8600 0.9566 1.0000
59.8700 0.0000 1.0000
59.8800 0.0000 1.0000
59.8900 2.0391 1.0000
59.9000 0.3258 1.0000
59.9100 3.0471 1.0000
59.9200 1.3418 1.0000
59.9300 1.3874 1.0000
59.9400 0.9734 1.0000
59.9500 0.0000 1.0000
59.9600 4.0547 1.0000
59.9700 1.9864 1.0000
59.9800 2.0734 1.0000
59.9900 0.0000 1.0000
60.0000 0.9993 1.0000
60.0100 3.0138 1.0000
60.0200 1.9900 1.0000
60.0300 2.9798 1.0000
60.0400 1.0132 1.0000
60.0500 1.0161 1.0000
60.0600 1.0476 1.0000
60.0700 0.0000 1.0000
60.0800 0.9687 1.0000
60.0900 0.9938 1.0000
60.1000 1.0166 1.0000
60.1100 1.0295 1.0000
60.1200 0.0000 1.0000
60.1300 0.9832 1.0000
60.1400 1.0259 1.0000
60.1500 0.3319 1.0000
60.1600 1.0709 1.0000
60.1700 0.0000 1.0000
60.1800 0.0000 1.0000
60.1900 2.9925 1.0000
60.2000 0.0000 1.0000
60.2100 0.0000 1.0000
60.2200 0.9956 1.0000
60.2300 2.0015 1.0000
60.2400 0.9938 1.0000
60.2500 2.5127 1.0000
60.2600 1.9947 1.0000
60.2700 1.0172 1.0000
60.2800 0.0000 1.0000
60.2900 0.3220 1.0000
60.3000 0.9608 1.0000
60.3100 1.0167 1.0000
60.3200 0.0000 1.0000
60.3300 1.0560 1.0000
60.3400 0.0000 1.0000
60.3500 1.0463 1.0000
60.3600 0.0000 1.0000
60.3700 0.9817 1.0000
60.3800 1.9813 1.0000
60.3900 1.0128 1.0000
60.4000 1.0268 1.0000
60.4100 0.0000 1.0000
60.4200 0.0000 1.0000
60.4300 0.9791 1.0000
60.4400 1.9905 1.0000
60.4500 0.0000 1.0000
60.4600 2.0221 1.0000
60.4700 1.0190 1.0000
60.4800 2.0550 1.0000
60.4900 1.0096 1.0000
60.5000 1.3615 1.0000
60.5100 0.0000 1.0000
60.5200 1.9548 1.0000
60.5300 0.0000 1.0000
60.5400 0.0000 1.0000
60.5500 1.0193 1.0000
60.5600 0.0000 1.0000
60.5700 0.9959 1.0000
60.5800 1.0327 1.0000
60.5900 3.0187 1.0000
60.6000 0.9870 1.0000
60.6100 2.3852 1.0000
60.6200 3.6112 1.0000
60.6300 0.0000 1.0000
60.6400 1.6305 1.0000
60.6500 0.3465 1.0000
60.6600 1.3163 1.0000
60.6700 1.2825 1.0000
60.6800 2.0066 1.0000
60.6900 2.3059 1.0000
60.7000 0.9743 1.0000
60.7100 2.0292 1.0000
60.7200 2.0493 1.0000
60.7300 0.9938 1.0000
60.7400 0.0000 1.0000
60.7500 2.9873 1.0000
60.7600 3.2925 1.0000
60.7700 1.0092 1.0000
60.7800 0.9956 1.0000
60.7900 1.9996 1.0000
60.8000 2.0709 1.0000
60.8100 2.9916 1.0000
60.8200 2.9861 1.0000
60.8300 0.0000 1.0000
60.8400 1.9829 1.0000
60.8500 1.4955 1.0000
60.8600 0.0000 1.0000
60.8700 3.0487 1.0000
60.8800 3.3222 1.0000
60.8900 3.9874 1.0000
60.9000 2.0337 1.0000
60.9100 0.0000 1.0000
60.9200 2.0083 1.0000
60.9300 1.9884 1.0000
60.9400 0.9852 1.0000
60.9500 0.0000 1.0000
60.9600 0.0000 1.0000
60.9700 0.0000 1.0000
60.9800 0.9771 1.0000
60.9900 3.0545 1.0000
61.0000 0.0000 1.0000
61.0100 0.9909 1.0000
61.0200 2.3271 1.0000
61.0300 1.0485 1.0000
61.0400 3.4746 1.0000
61.0500 1.0181 1.0000
61.0600 0.0000 1.0000
61.0700 0.0000 1.0000
61.0800 3.0530 1.0000
61.0900 2.0031 1.0000
61.1000 2.1517 1.0000
61.1100 2.0267 1.0000
61.1200 1.9774 1.0000
61.1300 0.0000 1.0000
61.1400 1.0193 1.0000
61.1500 1.0087 1.0000
61.1600 0.0000 1.0000
61.1700 0.0000 1.0000
61.1800 4.3019 1.0000
61.1900 0.9993 1.0000
61.2000 0.9775 1.0000
61.2100 2.0996 1.0000
61.2200 3.0095 1.0000
61.2300 0.9945 1.0000
61.2400 0.0000 1.0000
61.2500 1.9746 1.0000
61.2600 1.0007 1.0000
61.2700 0.3407 1.0000
61.2800 1.0233 1.0000
61.2900 2.0638 1.0000
61.3000 1.0152 1.0000
61.3100 3.9598 1.0000
61.3200 4.4890 1.0000
61.3300 1.3524 1.0000
61.3400 2.0091 1.0000
61.3500 0.3408 1.0000
61.3600 0.0000 1.0000
61.3700 3.3364 1.0000
61.3800 0.0000 1.0000
61.3900 2.0234 1.0000
61.4000 3.0111 1.0000
61.4100 1.0463 1.0000
61.4200 2.2998 1.0000
61.4300 0.0000 1.0000
61.4400 2.0301 1.0000
61.4500 1.0090 1.0000
61.4600 0.9821 1.0000
61.4700 2.0084 1.0000
61.4800 4.0891 1.0000
61.4900 1.0148 1.0000
61.5000 0.3410 1.0000
61.5100 0.0000 1.0000
61.5200 0.0000 1.0000
61.5300 0.0000 1.0000
61.5400 3.9419 1.0000
61.5500 1.0052 1.0000
61.5600 0.3388 1.0000
61.5700 2.6224 1.0000
61.5800 2.0561 1.0000
61.5900 4.0749 1.0000
61.6000 2.0677 1.0000
61.6100 0.9791 1.0000
61.6200 0.0000 1.0000
61.6300 3.5315 1.0000
61.6400 3.9920 1.0000
61.6500 0.0000 1.0000
61.6600 0.9765 1.0000
61.6700 2.3696 1.0000
61.6800 1.0230 1.0000
61.6900 2.0339 1.0000
61.7000 1.3087 1.0000
61.7100 2.0860 1.0000
61.7200 2.0055 1.0000
61.7300 1.0109 1.0000
61.7400 4.0492 1.0000
61.7500 3.0230 1.0000
61.7600 2.3697 1.0000
61.7700 1.2009 1.0000
61.7800 1.0854 1.0000
61.7900 0.0000 1.0000
61.8000 0.0000 1.0000
61.8100 1.0485 1.0000
61.8200 1.0175 1.0000
61.8300 4.3520 1.0000
61.8400 0.0000 1.0000
61.8500 0.0000 1.0000
61.8600 0.0000 1.0000
61.8700 0.0000 1.0000
61.8800 1.7164 1.0000
61.8900 4.0003 1.0000
61.9000 0.9919 1.0000
61.9100 1.3387 1.0000
61.9200 0.9832 1.0000
61.9300 0.0000 1.0000
61.9400 0.9894 1.0000
61.9500 2.0273 1.0000
61.9600 1.3448 1.0000
61.9700 1.0685 1.0000
61.9800 1.4433 1.0000
61.9900 0.0000 1.0000
62.0000 0.0000 1.0000
62.0100 2.4340 1.0000
62.0200 0.0000 1.0000
62.0300 0.0000 1.0000
62.0400 1.0175 1.0000
62.0500 2.5767 1.0000
62.0600 0.0000 1.0000
62.0700 0.3306 1.0000
62.0800 0.0000 1.0000
62.0900 2.0444 1.0000
62.1000 1.9993 1.0000
62.1100 0.0000 1.0000
62.1200 0.9786 1.0000
62.1300 1.0247 1.0000
62.1400 0.0000 1.0000
62.1500 0.9950 1.0000
62.1600 0.0000 1.0000
62.1700 2.3692 1.0000
62.1800 0.9894 1.0000
62.1900 0.0000 1.0000
62.2000 1.9442 1.0000
62.2100 1.9694 1.0000
62.2200 0.9608 1.0000
62.2300 0.0000 1.0000
62.2400 1.1261 1.0000
62.2500 1.9929 1.0000
62.2600 0.0000 1.0000
62.2700 1.0034 1.0000
62.2800 2.0718 1.0000
62.2900 2.0162 1.0000
62.3000 0.0000 1.0000
62.3100 1.0004 1.0000
62.3200 1.0384 1.0000
62.3300 0.9850 1.0000
62.3400 0.0000 1.0000
62.3500 1.0172 1.0000
62.3600 2.0306 1.0000
62.3700 1.9645 1.0000
62.3800 0.9775 1.0000
62.3900 1.9759 1.0000
62.4000 2.1039 1.0000
62.4100 1.6610 1.0000
62.4200 1.9987 1.0000
62.4300 3.0153 1.0000
62.4400 0.9636 1.0000
62.4500 1.6013 1.0000
62.4600 0.0000 1.0000
62.4700 2.0837 1.0000
62.4800 0.9926 1.0000
62.4900 0.0000 1.0000
62.5000 1.0306 1.0000
62.5100 2.9698 1.0000
62.5200 1.0199 1.0000
62.5300 1.2977 1.0000
62.5400 0.0000 1.0000
62.5500 1.0485 1.0000
62.5600 0.3330 1.0000
62.5700 2.0226 1.0000
62.5800 0.9857 1.0000
62.5900 0.0000 1.0000
62.6000 4.0675 1.0000
62.6100 1.3277 1.0000
62.6200 2.0337 1.0000
62.6300 0.3261 1.0000
62.6400 0.9821 1.0000
62.6500 2.0593 1.0000
62.6600 3.9796 1.0000
62.6700 2.9780 1.0000
62.6800 1.0048 1.0000
62.6900 3.9967 1.0000
62.7000 1.0442 1.0000
62.7100 0.0000 1.0000
62.7200 2.9610 1.0000
62.7300 2.0244 1.0000
62.7400 1.9606 1.0000
62.7500 1.3182 1.0000
62.7600 2.0354 1.0000
62.7700 1.0201 1.0000
62.7800 0.9726 1.0000
62.7900 0.0000 1.0000
62.8000 1.0561 1.0000
62.8100 2.3537 1.0000
62.8200 2.6416 1.0000
62.8300 2.0113 1.0000
62.8400 0.0000 1.0000
62.8500 1.9804 1.0000
62.8600 2.0028 1.0000
62.8700 1.9869 1.0000
62.8800 1.9695 1.0000
62.8900 0.9880 1.0000
62.9000 3.9057 1.0000
62.9100 2.3950 1.0000
62.9200 1.4433 1.0000
62.9300 0.0000 1.0000
62.9400 1.0558 1.0000
62.9500 6.0049 1.0000
62.9600 4.0355 1.0000
62.9700 0.0000 1.0000
62.9800 0.9967 1.0000
62.9900 0.0000 1.0000
63.0000 0.3368 1.0000
63.0100 2.0106 1.0000
63.0200 1.0020 1.0000
63.0300 2.0833 1.0000
63.0400 3.0469 1.0000
63.0500 2.2833 1.0000
63.0600 0.0000 1.0000
63.0700 0.0000 1.0000
63.0800 1.0487 1.0000
63.0900 3.0061 1.0000
63.1000 1.0328 1.0000
63.1100 0.9944 1.0000
63.1200 1.0113 1.0000
63.1300 2.9913 1.0000
63.1400 0.0000 1.0000
63.1500 1.9750 1.0000
63.1600 2.3412 1.0000
63.1700 2.0638 1.0000
63.1800 0.9942 1.0000
63.1900 3.0146 1.0000
63.2000 1.0123 1.0000
63.2100 1.0151 1.0000
63.2200 1.3026 1.0000
63.2300 1.0475 1.0000
63.2400 1.9849 1.0000
63.2500 1.0141 1.0000
63.2600 2.1092 1.0000
63.2700 0.9734 1.0000
63.2800 0.0000 1.0000
63.2900 4.0795 1.0000
63.3000 1.0059 1.0000
63.3100 1.9836 1.0000
63.3200 2.4614 1.0000
63.3300 2.0290 1.0000
63.3400 0.9513 1.0000
63.3500 1.0359 1.0000
63.3600 2.9932 1.0000
63.3700 1.0377 1.0000
63.3800 2.9832 1.0000
63.3900 3.0637 1.0000
63.4000 0.0000 1.0000
63.4100 2.0411 1.0000
63.4200 2.0317 1.0000
63.4300 0.9980 1.0000
63.4400 2.0124 1.0000
63.4500 3.5404 1.0000
63.4600 1.0301 1.0000
63.4700 1.0174 1.0000
63.4800 2.0397 1.0000
63.4900 3.0691 1.0000
63.5000 1.9930 1.0000
63.5100 1.0048 1.0000
63.5200 1.0281 1.0000
63.5300 0.0000 1.0000
63.5400 4.0456 1.0000
63.5500 0.0000 1.0000
63.5600 0.0000 1.0000
63.5700 1.9602 1.0000
63.5800 0.0000 1.0000
63.5900 1.0165 1.0000
63.6000 2.9504 1.0000
63.6100 1.0297 1.0000
63.6200 1.3500 1.0000
63.6300 1.9631 1.0000
63.6400 4.2975 1.0000
63.6500 0.9924 1.0000
63.6600 2.0197 1.0000
63.6700 2.6433 1.0000
63.6800 4.5589 1.0000
63.6900 1.0318 1.0000
63.7000 0.0000 1.0000
63.7100 6.0785 1.0000
63.7200 2.0242 1.0000
63.7300 1.3927 1.0000
63.7400 0.9938 1.0000
63.7500 2.0202 1.0000
63.7600 2.5197 1.0000
63.7700 1.9498 1.0000
63.7800 3.0788 1.0000
63.7900 1.3473 1.0000
63.8000 1.0152 1.0000
63.8100 0.0000 1.0000
63.8200 0.9869 1.0000
63.8300 0.9783 1.0000
63.8400 3.0255 1.0000
63.8500 4.1032 1.0000
63.8600 0.0000 1.0000
63.8700 1.0107 1.0000
63.8800 4.9514 1.0000
63.8900 4.1178 1.0000
63.9000 1.2731 1.0000
63.9100 2.0309 1.0000
63.9200 0.0000 1.0000
63.9300 2.0041 1.0000
63.9400 1.0267 1.0000
63.9500 2.0258 1.0000
63.9600 1.0097 1.0000
63.9700 0.0000 1.0000
63.9800 1.3638 1.0000
63.9900 2.0077 1.0000
64.0000 4.0544 1.0000
64.0100 3.0941 1.0000
64.0200 2.0767 1.0000
64.0300 0.3172 1.0000
64.0400 0.9761 1.0000
64.0500 1.0108 1.0000
64.0600 0.0000 1.0000
64.0700 0.0000 1.0000
64.0800 2.9617 1.0000
64.0900 1.0138 1.0000
64.1000 3.8555 1.0000
64.1100 5.1379 1.0000
64.1200 1.0090 1.0000
64.1300 3.0391 1.0000
64.1400 0.9751 1.0000
64.1500 2.0641 1.0000
64.1600 1.0405 1.0000
64.1700 1.9299 1.0000
64.1800 1.9991 1.0000
64.1900 3.9873 1.0000
64.2000 0.9943 1.0000
64.2100 1.3351 1.0000
64.2200 2.0345 1.0000
64.2300 1.0161 1.0000
64.2400 4.0254 1.0000
64.2500 3.1014 1.0000
64.2600 3.3553 1.0000
64.2700 2.0162 1.0000
64.2800 2.9762 1.0000
64.2900 1.0693 1.0000
64.3000 2.1307 1.0000
64.3100 3.9698 1.0000
64.3200 2.9886 1.0000
64.3300 2.0632 1.0000
64.3400 0.9734 1.0000
64.3500 5.9930 1.0000
64.3600 4.5137 1.0000
64.3700 3.0235 1.0000
64.3800 0.0000 1.0000
64.3900 3.0302 1.0000
64.4000 1.3112 1.0000
64.4100 2.0349 1.0000
64.4200 3.0473 1.0000
64.4300 1.9844 1.0000
64.4400 2.0485 1.0000
64.4500 2.9159 1.0000
64.4600 4.4912 1.0000
64.4700 3.0276 1.0000
64.4800 1.0393 1.0000
64.4900 0.9505 1.0000
64.5000 3.9760 1.0000
64.5100 4.0213 1.0000
64.5200 3.0322 1.0000
64.5300 2.0338 1.0000
64.5400 0.9691 1.0000
64.5500 1.3036 1.0000
64.5600 2.0332 1.0000
64.5700 3.6885 1.0000
64.5800 2.3953 1.0000
64.5900 6.0004 1.0000
64.6000 0.9920 1.0000
64.6100 4.0809 1.0000
64.6200 5.0314 1.0000
64.6300 3.0095 1.0000
64.6400 3.9770 1.0000
64.6500 1.0037 1.0000
64.6600 4.0326 1.0000
64.6700 3.0417 1.0000
64.6800 4.0337 1.0000
64.6900 3.9405 1.0000
64.7000 1.0335 1.0000
64.7100 5.0345 1.0000
64.7200 5.0604 1.0000
64.7300 2.0544 1.0000
64.7400 0.0000 1.0000
64.7500 2.0370 1.0000
64.7600 2.0185 1.0000
64.7700 3.0546 1.0000
64.7800 5.0536 1.0000
64.7900 3.9158 1.0000
64.8000 1.9807 1.0000
64.8100 2.9691 1.0000
64.8200 3.4395 1.0000
64.8300 2.0459 1.0000
64.8400 2.0267 1.0000
64.8500 5.2142 1.0000
64.8600 1.9845 1.0000
64.8700 1.3779 1.0000
64.8800 0.0000 1.0000
64.8900 1.9950 1.0000
64.9000 1.9780 1.0000
64.9100 0.0000 1.0000
64.9200 2.9971 1.0000
64.9300 0.9981 1.0000
64.9400 5.0419 1.0000
64.9500 2.3485 1.0000
64.9600 1.0197 1.0000
64.9700 2.4012 1.0000
64.9800 0.9524 1.0000
64.9900 2.3169 1.0000
65.0000 0.9914 1.0000
65.0100 5.0546 1.0000
65.0200 0.9692 1.0000
65.0300 4.3106 1.0000
65.0400 0.9946 1.0000
65.0500 4.0465 1.0000
65.0600 5.3163 1.0000
65.0700 3.7003 1.0000
65.0800 0.3396 1.0000
65.0900 4.4171 1.0000
65.1000 5.0388 1.0000
65.1100 3.0197 1.0000
65.1200 2.9862 1.0000
65.1300 2.0261 1.0000
65.1400 3.0591 1.0000
65.1500 2.0203 1.0000
65.1600 2.0311 1.0000
65.1700 3.4528 1.0000
65.1800 2.0249 1.0000
65.1900 5.3970 1.0000
65.2000 1.2949 1.0000
65.2100 1.9831 1.0000
65.2200 1.9927 1.0000
65.2300 2.3628 1.0000
65.2400 2.0055 1.0000
65.2500 6.0440 1.0000
65.2600 1.3101 1.0000
65.2700 2.9612 1.0000
65.2800 2.0582 1.0000
65.2900 4.0269 1.0000
65.3000 0.0000 1.0000
65.3100 1.9633 1.0000
65.3200 6.9545 1.0000
65.3300 5.1397 1.0000
65.3400 4.0161 1.0000
65.3500 3.0527 1.0000
65.3600 1.0564 1.0000
65.3700 3.0378 1.0000
65.3800 6.3446 1.0000
65.3900 4.0208 1.0000
65.4000 3.0520 1.0000
65.4100 5.1166 1.0000
65.4200 2.0709 1.0000
65.4300 0.9637 1.0000
65.4400 2.0404 1.0000
65.4500 5.3907 1.0000
65.4600 3.0463 1.0000
65.4700 3.9006 1.0000
65.4800 1.9826 1.0000
65.4900 2.0290 1.0000
65.5000 4.4720 1.0000
65.5100 2.9844 1.0000
65.5200 1.0402 1.0000
65.5300 2.3130 1.0000
65.5400 2.0867 1.0000
65.5500 5.9864 1.0000
65.5600 8.4327 1.0000
65.5700 3.4946 1.0000
65.5800 0.0000 1.0000
65.5900 4.4004 1.0000
65.6000 1.9733 1.0000
65.6100 0.9909 1.0000
65.6200 3.5565 1.0000
65.6300 3.8996 1.0000
65.6400 1.6539 1.0000
65.6500 3.2808 1.0000
65.6600 3.0176 1.0000
65.6700 2.0614 1.0000
65.6800 3.4071 1.0000
65.6900 1.9840 1.0000
65.7000 3.9594 1.0000
65.7100 2.0043 1.0000
65.7200 5.3375 1.0000
65.7300 3.2796 1.0000
65.7400 4.1021 1.0000
65.7500 4.6443 1.0000
65.7600 4.9490 1.0000
65.7700 2.5487 1.0000
65.7800 5.2348 1.0000
65.7900 4.3345 1.0000
65.8000 4.9827 1.0000
65.8100 2.9624 1.0000
65.8200 5.0715 1.0000
65.8300 5.9937 1.0000
65.8400 5.0193 1.0000
65.8500 5.6380 1.0000
65.8600 3.0780 1.0000
65.8700 4.0067 1.0000
65.8800 7.3646 1.0000
65.8900 4.0288 1.0000
65.9000 7.3306 1.0000
65.9100 2.9909 1.0000
65.9200 6.8731 1.0000
65.9300 3.9316 1.0000
65.9400 9.1511 1.0000
65.9500 3.1044 1.0000
65.9600 0.6392 1.0000
65.9700 3.0114 1.0000
65.9800 3.0500 1.0000
65.9900 6.0524 1.0000
66.0000 7.1848 1.0000
66.0100 7.1127 1.0000
66.0200 5.9948 1.0000
66.0300 3.9391 1.0000
66.0400 9.7959 1.0000
66.0500 6.2240 1.0000
66.0600 4.0925 1.0000
66.0700 6.4741 1.0000
66.0800 5.4317 1.0000
66.0900 7.9985 1.0000
66.1000 10.6327 1.0000
66.1100 10.7070 1.0000
66.1200 4.9936 1.0000
66.1300 5.0698 1.0000
66.1400 6.6932 1.0000
66.1500 7.0301 1.0000
66.1600 7.3910 1.0000
66.1700 9.1947 1.0000
66.1800 5.1781 1.0000
66.1900 5.2706 1.0000
66.2000 8.3384 1.0000
66.2100 2.5966 1.0000
66.2200 4.2893 1.0000
66.2300 5.0805 1.0000
66.2400 6.0029 1.0000
66.2500 3.4196 1.0000
66.2600 4.1297 1.0000
66.2700 7.0302 1.0000
66.2800 5.1698 1.0000
66.2900 7.0825 1.0000
66.3000 6.0748 1.0000
66.3100 7.4116 1.0000
66.3200 5.7130 1.0000
66.3300 6.0660 1.0000
66.3400 8.4689 1.0000
66.3500 6.9461 1.0000
66.3600 1.0033 1.0000
66.3700 5.1036 1.0000
66.3800 8.0116 1.0000
66.3900 8.0601 1.0000
66.4000 9.2780 1.0000
66.4100 5.3794 1.0000
66.4200 7.1708 1.0000
66.4300 5.0370 1.0000
66.4400 11.6644 1.0000
66.4500 5.9819 1.0000
66.4600 9.1564 1.0000
66.4700 6.7646 1.0000
66.4800 9.2236 1.0000
66.4900 9.1033 1.0000
66.5000 9.3201 1.0000
66.5100 8.9653 1.0000
66.5200 9.7632 1.0000
66.5300 5.0254 1.0000
66.5400 6.3862 1.0000
66.5500 12.2162 1.0000
66.5600 6.6412 1.0000
66.5700 3.3759 1.0000
66.5800 8.3519 1.0000
66.5900 5.0855 1.0000
66.6000 6.9481 1.0000
66.6100 6.9193 1.0000
66.6200 7.3494 1.0000
66.6300 7.3986 1.0000
66.6400 5.3099 1.0000
66.6500 6.3254 1.0000
66.6600 2.9522 1.0000
66.6700 7.3959 1.0000
66.6800 8.9699 1.0000
66.6900 11.9809 1.0000
66.7000 3.6799 1.0000
66.7100 1.9837 1.0000
66.7200 11.0888 1.0000
66.7300 11.8772 1.0000
66.7400 10.0405 1.0000
66.7500 9.5606 1.0000
66.7600 8.1779 1.0000
66.7700 8.2534 1.0000
66.7800 8.1222 1.0000
66.7900 9.3193 1.0000
66.8000 11.2168 1.0000
66.8100 8.0800 1.0000
66.8200 3.3172 1.0000
66.8300 10.7481 1.0000
66.8400 6.8096 1.0000
66.8500 6.3068 1.0000
66.8600 13.2338 1.0000
66.8700 8.5423 1.0000
66.8800 8.8440 1.0000
66.8900 7.8235 1.0000
66.9000 16.0864 1.0000
66.9100 7.9542 1.0000
66.9200 8.3006 1.0000
66.9300 15.2118 1.0000
66.9400 9.2768 1.0000
66.9500 16.0251 1.0000
66.9600 9.5448 1.0000
66.9700 11.9289 1.0000
66.9800 14.1456 1.0000
66.9900 8.1009 1.0000
67.0000 7.0202 1.0000
67.0100 16.6305 1.0000
67.0200 11.0560 1.0000
67.0300 8.3746 1.0000
67.0400 12.3546 1.0000
67.0500 14.9732 1.0000
67.0600 4.0204 1.0000
67.0700 16.9414 1.0000
67.0800 13.1593 1.0000
67.0900 9.8169 1.0000
67.1000 9.8470 1.0000
67.1100 9.4368 1.0000
67.1200 8.8610 1.0000
67.1300 10.5864 1.0000
67.1400 14.8030 1.0000
67.1500 14.6067 1.0000
67.1600 17.7237 1.0000
67.1700 12.2410 1.0000
67.1800 17.7953 1.0000
67.1900 10.1215 1.0000
67.2000 11.4269 1.0000
67.2100 16.0890 1.0000
67.2200 9.3600 1.0000
67.2300 16.3152 1.0000
67.2400 10.7109 1.0000
67.2500 9.8391 1.0000
67.2600 11.1249 1.0000
67.2700 15.5265 1.0000
67.2800 12.8157 1.0000
67.2900 12.2029 1.0000
67.3000 11.0346 1.0000
67.3100 14.1006 1.0000
67.3200 11.3089 1.0000
67.3300 5.0878 1.0000
67.3400 21.1169 1.0000
67.3500 14.3200 1.0000
67.3600 27.2761 1.0000
67.3700 16.0021 1.0000
67.3800 15.2916 1.0000
67.3900 15.1080 1.0000
67.4000 14.5670 1.0000
67.4100 17.8208 1.0000
67.4200 11.6077 1.0000
67.4300 12.7323 1.0000
67.4400 22.4032 1.0000
67.4500 12.0932 1.0000
67.4600 13.7031 1.0000
67.4700 17.2655 1.0000
67.4800 26.1134 1.0000
67.4900 18.7918 1.0000
67.5000 22.6938 1.0000
67.5100 20.5970 1.0000
67.5200 25.1557 1.0000
67.5300 28.9836 1.0000
67.5400 18.1243 1.0000
67.5500 19.7048 1.0000
67.5600 18.0597 1.0000
67.5700 25.7385 1.0000
67.5800 11.6739 1.0000
67.5900 13.3702 1.0000
67.6000 28.0987 1.0000
67.6100 17.7804 1.0000
67.6200 18.7396 1.0000
67.6300 19.4285 1.0000
67.6400 23.1604 1.0000
67.6500 12.6831 1.0000
67.6600 20.8429 1.0000
67.6700 28.7061 1.0000
67.6800 19.7630 1.0000
67.6900 9.5023 1.0000
67.7000 19.4821 1.0000
67.7100 19.1009 1.0000
67.7200 26.9779 1.0000
67.7300 22.6460 1.0000
67.7400 11.0807 1.0000
67.7500 25.7119 1.0000
67.7600 32.0158 1.0000
67.7700 27.9911 1.0000
67.7800 20.3985 1.0000
67.7900 12.5806 1.0000
67.8000 31.4765 1.0000
67.8100 28.6801 1.0000
67.8200 26.3818 1.0000
67.8300 27.3680 1.0000
67.8400 20.0499 1.0000
67.8500 20.4301 1.0000
67.8600 20.7888 1.0000
67.8700 21.0099 1.0000
67.8800 34.3864 1.0000
67.8900 25.3624 1.0000
67.9000 28.7111 1.0000
67.9100 23.4820 1.0000
67.9200 37.3292 1.0000
67.9300 39.6232 1.0000
67.9400 27.2634 1.0000
67.9500 36.1029 1.0000
67.9600 28.7835 1.0000
67.9700 22.4414 1.0000
67.9800 29.9491 1.0000
67.9900 35.6157 1.0000
68.0000 27.4931 1.0000
68.0100 19.5551 1.0000
68.0200 34.9784 1.0000
68.0300 33.5077 1.0000
68.0400 31.2159 1.0000
68.0500 37.1899 1.0000
68.0600 34.6344 1.0000
68.0700 37.0938 1.0000
68.0800 31.8484 1.0000
68.0900 25.8614 1.0000
68.1000 39.1661 1.0000
68.1100 35.0163 1.0000
68.1200 30.9024 1.0000
68.1300 29.2379 1.0000
68.1400 40.6978 1.0000
68.1500 40.5238 1.0000
68.1600 46.6773 1.0000
68.1700 36.3118 1.0000
68.1800 32.7544 1.0000
68.1900 49.7300 1.0000
68.2000 41.7114 1.0000
68.2100 51.4605 1.0000
68.2200 39.1536 1.0000
68.2300 41.7248 1.0000
68.2400 49.6311 1.0000
68.2500 55.1741 1.0000
68.2600 49.9555 1.0000
68.2700 62.7964 1.0000
68.2800 30.8299 1.0000
68.2900 54.2724 1.0000
68.3000 56.7476 1.0000
68.3100 62.1638 1.0000
68.3200 49.9078 1.0000
68.3300 58.0387 1.0000
68.3400 59.8025 1.0000
68.3500 54.6687 1.0000
68.3600 62.3499 1.0000
68.3700 72.7157 1.0000
68.3800 55.8813 1.0000
68.3900 66.9623 1.0000
68.4000 65.6449 1.0000
68.4100 67.0997 1.0000
68.4200 52.5847 1.0000
68.4300 79.1353 1.0000
68.4400 82.2012 1.0000
68.4500 76.9095 1.0000
68.4600 73.3779 1.0000
68.4700 63.7426 1.0000
68.4800 76.9642 1.0000
68.4900 83.2655 1.0000
68.5000 78.0242 1.0000
68.5100 88.1767 1.0000
68.5200 73.6939 1.0000
68.5300 75.8302 1.0000
68.5400 91.8036 1.0000
68.5500 82.5945 1.0000
68.5600 97.2819 1.0000
68.5700 92.8684 1.0000
68.5800 81.1870 1.0000
68.5900 86.9851 1.0000
68.6000 113.0504 1.0000
68.6100 105.6348 1.0000
68.6200 113.8363 1.0000
68.6300 112.7921 1.0000
68.6400 112.7587 1.0000
68.6500 133.1887 1.0000
68.6600 129.1990 1.0000
68.6700 138.5927 1.0000
68.6800 117.6560 1.0000
68.6900 135.7843 1.0000
68.7000 145.1217 1.0000
68.7100 146.8835 1.0000
68.7200 152.3969 1.0000
68.7300 153.5314 1.0000
68.7400 164.8592 1.0000
68.7500 179.5258 1.0000
68.7600 173.4293 1.0000
68.7700 201.2289 1.0000
68.7800 184.1165 1.0000
68.7900 217.0737 1.0000
68.8000 199.7826 1.0000
68.8100 233.2386 1.0000
68.8200 224.3934 1.0000
68.8300 213.2744 1.0000
68.8400 221.9853 1.0000
68.8500 233.2568 1.0000
68.8600 259.7311 1.0000
68.8700 236.9787 1.0000
68.8800 265.3030 1.0000
68.8900 289.1708 1.0000
68.9000 302.3305 1.0000
68.9100 263.8486 1.0000
68.9200 299.8460 1.0000
68.9300 304.4261 1.0000
68.9400 319.7987 1.0000
68.9500 332.8313 1.0000
68.9600 370.4657 1.0000
68.9700 372.1010 1.0000
68.9800 382.2056 1.0000
68.9900 391.7659 1.0000
69.0000 390.2874 1.0000
69.0100 385.3356 1.0000
69.0200 373.9051 1.0000
69.0300 395.1050 1.0000
69.0400 444.8019 1.0000
69.0500 403.5747 1.0000
69.0600 420.6201 1.0000
69.0700 435.9077 1.0000
69.0800 401.7604 1.0000
69.0900 400.8315 1.0000
69.1000 424.4988 1.0000
69.1100 384.9174 1.0000
69.1200 371.5958 1.0000
69.1300 383.2593 1.0000
69.1400 418.3391 1.0000
69.1500 429.2492 1.0000
69.1600 380.4692 1.0000
69.1700 391.4331 1.0000
69.1800 418.1048 1.0000
69.1900 361.0515 1.0000
69.2000 405.2108 1.0000
69.2100 354.1186 1.0000
69.2200 351.5883 1.0000
69.2300 376.9663 1.0000
69.2400 357.4289 1.0000
69.2500 336.7133 1.0000
69.2600 346.2822 1.0000
69.2700 353.9116 1.0000
69.2800 327.6924 1.0000
69.2900 321.9786 1.0000
69.3000 300.4538 1.0000
69.3100 313.4361 1.0000
69.3200 304.9063 1.0000
69.3300 295.8570 1.0000
69.3400 281.6260 1.0000
69.3500 285.5943 1.0000
69.3600 245.5959 1.0000
69.3700 270.9403 1.0000
69.3800 247.0824 1.0000
69.3900 234.4558 1.0000
69.4000 222.8134 1.0000
69.4100 225.2692 1.0000
69.4200 222.8226 1.0000
69.4300 231.6418 1.0000
69.4400 205.9668 1.0000
69.4500 204.5937 1.0000
69.4600 203.2077 1.0000
69.4700 224.4783 1.0000
69.4800 180.4636 1.0000
69.4900 158.5919 1.0000
69.5000 198.4070 1.0000
69.5100 167.2695 1.0000
69.5200 161.1728 1.0000
69.5300 149.7542 1.0000
69.5400 142.7035 1.0000
69.5500 172.4585 1.0000
69.5600 159.6281 1.0000
69.5700 140.3327 1.0000
69.5800 147.0583 1.0000
69.5900 135.4037 1.0000
69.6000 117.5696 1.0000
69.6100 113.5677 1.0000
69.6200 122.7103 1.0000
69.6300 117.1647 1.0000
69.6400 122.5134 1.0000
69.6500 121.5415 1.0000
69.6600 107.8188 1.0000
69.6700 123.6503 1.0000
69.6800 119.8649 1.0000
69.6900 112.2021 1.0000
69.7000 78.6606 1.0000
69.7100 82.2045 1.0000
69.7200 96.1865 1.0000
69.7300 100.5854 1.0000
69.7400 105.2526 1.0000
69.7500 96.1129 1.0000
69.7600 90.4119 1.0000
69.7700 88.3750 1.0000
69.7800 77.9413 1.0000
69.7900 76.3523 1.0000
69.8000 76.2623 1.0000
69.8100 65.9646 1.0000
69.8200 75.7866 1.0000
69.8300 70.7843 1.0000
69.8400 64.4516 1.0000
69.8500 68.0645 1.0000
69.8600 66.8287 1.0000
69.8700 74.6213 1.0000
69.8800 64.6994 1.0000
69.8900 59.3752 1.0000
69.9000 66.3368 1.0000
69.9100 57.5540 1.0000
69.9200 57.5492 1.0000
69.9300 48.1995 1.0000
69.9400 55.8531 1.0000
69.9500 61.7317 1.0000
69.9600 58.5050 1.0000
69.9700 60.7106 1.0000
69.9800 52.3480 1.0000
69.9900 49.7373 1.0000
70.0000 53.3690 1.0000
70.0100 51.8220 1.0000
70.0200 58.4835 1.0000
70.0300 55.2188 1.0000
70.0400 48.6469 1.0000
70.0500 36.1344 1.0000
70.0600 47.6677 1.0000
70.0700 52.8329 1.0000
70.0800 48.1862 1.0000
70.0900 41.8424 1.0000
70.1000 39.9935 1.0000
70.1100 41.6134 1.0000
70.1200 39.3422 1.0000
70.1300 38.0813 1.0000
70.1400 35.4688 1.0000
70.1500 36.2131 1.0000
70.1600 43.3381 1.0000
70.1700 53.5841 1.0000
70.1800 35.2134 1.0000
70.1900 39.4809 1.0000
70.2000 36.0751 1.0000
70.2100 40.1400 1.0000
70.2200 32.5930 1.0000
70.2300 46.0202 1.0000
70.2400 24.8481 1.0000
70.2500 35.8188 1.0000
70.2600 36.7077 1.0000
70.2700 28.5131 1.0000
70.2800 32.0383 1.0000
70.2900 31.4699 1.0000
70.3000 19.2307 1.0000
70.3100 35.7428 1.0000
70.3200 29.9077 1.0000
70.3300 43.0076 1.0000
70.3400 29.2020 1.0000
70.3500 38.1564 1.0000
70.3600 35.2907 1.0000
70.3700 24.8411 1.0000
70.3800 24.9453 1.0000
70.3900 22.7361 1.0000
70.4000 22.6384 1.0000
70.4100 36.3010 1.0000
70.4200 22.3550 1.0000
70.4300 17.3466 1.0000
70.4400 20.2902 1.0000
70.4500 19.0235 1.0000
70.4600 35.1673 1.0000
70.4700 27.0925 1.0000
70.4800 26.4871 1.0000
70.4900 28.0584 1.0000
70.5000 26.9357 1.0000
70.5100 20.6641 1.0000
70.5200 31.7954 1.0000
70.5300 12.9888 1.0000
70.5400 19.9535 1.0000
70.5500 22.2663 1.0000
70.5600 30.2997 1.0000
70.5700 16.2188 1.0000
70.5800 27.7347 1.0000
70.5900 25.0649 1.0000
70.6000 16.5642 1.0000
70.6100 24.2401 1.0000
70.6200 19.4978 1.0000
70.6300 10.0707 1.0000
70.6400 15.2352 1.0000
70.6500 27.1054 1.0000
70.6600 17.0608 1.0000
70.6700 26.8360 1.0000
70.6800 16.4877 1.0000
70.6900 20.6723 1.0000
70.7000 8.3066 1.0000
70.7100 20.3586 1.0000
70.7200 10.6330 1.0000
70.7300 22.2577 1.0000
70.7400 19.3288 1.0000
70.7500 18.3831 1.0000
70.7600 18.7932 1.0000
70.7700 18.0775 1.0000
70.7800 19.8282 1.0000
70.7900 20.9630 1.0000
70.8000 18.1352 1.0000
70.8100 15.7355 1.0000
70.8200 22.2062 1.0000
70.8300 10.0969 1.0000
70.8400 18.9009 1.0000
70.8500 9.0694 1.0000
70.8600 12.9803 1.0000
70.8700 21.3064 1.0000
70.8800 9.7538 1.0000
70.8900 11.8107 1.0000
70.9000 14.1792 1.0000
70.9100 12.8915 1.0000
70.9200 10.4996 1.0000
70.9300 14.2912 1.0000
70.9400 13.1973 1.0000
70.9500 16.1440 1.0000
70.9600 11.0310 1.0000
70.9700 9.7644 1.0000
70.9800 11.5244 1.0000
70.9900 11.7500 1.0000
71.0000 11.1789 1.0000
71.0100 8.0691 1.0000
71.0200 14.4051 1.0000
71.0300 14.4115 1.0000
71.0400 15.9045 1.0000
71.0500 12.1522 1.0000
71.0600 14.8302 1.0000
71.0700 11.6790 1.0000
71.0800 14.0646 1.0000
71.0900 12.6715 1.0000
71.1000 9.1525 1.0000
71.1100 10.1101 1.0000
71.1200 9.6273 1.0000
71.1300 12.3164 1.0000
71.1400 9.5323 1.0000
71.1500 15.0532 1.0000
71.1600 10.2558 1.0000
71.1700 12.0585 1.0000
71.1800 10.3989 1.0000
71.1900 9.4318 1.0000
71.2000 6.4141 1.0000
71.2100 6.0442 1.0000
71.2200 6.9796 1.0000
71.2300 5.0057 1.0000
71.2400 9.3229 1.0000
71.2500 3.3378 1.0000
71.2600 10.0458 1.0000
71.2700 10.0918 1.0000
71.2800 10.7984 1.0000
71.2900 9.2330 1.0000
71.3000 15.2379 1.0000
71.3100 6.2102 1.0000
71.3200 6.6022 1.0000
71.3300 9.1726 1.0000
71.3400 9.7004 1.0000
71.3500 6.0402 1.0000
71.3600 5.9885 1.0000
71.3700 13.4689 1.0000
71.3800 9.1087 1.0000
71.3900 9.1250 1.0000
71.4000 11.5539 1.0000
71.4100 5.0864 1.0000
71.4200 12.0388 1.0000
71.4300 13.3980 1.0000
71.4400 3.0024 1.0000
71.4500 5.4723 1.0000
71.4600 15.1090 1.0000
71.4700 12.2003 1.0000
71.4800 4.0707 1.0000
71.4900 7.2266 1.0000
71.5000 5.0286 1.0000
71.5100 9.9988 1.0000
71.5200 10.5142 1.0000
71.5300 5.5047 1.0000
71.5400 19.0054 1.0000
71.5500 8.8998 1.0000
71.5600 8.3367 1.0000
71.5700 5.2247 1.0000
71.5800 5.0321 1.0000
71.5900 6.3292 1.0000
71.6000 7.3253 1.0000
71.6100 11.7504 1.0000
71.6200 5.1826 1.0000
71.6300 8.3351 1.0000
71.6400 9.0154 1.0000
71.6500 12.0772 1.0000
71.6600 6.0152 1.0000
71.6700 3.9383 1.0000
71.6800 9.3628 1.0000
71.6900 5.0351 1.0000
71.7000 1.9739 1.0000
71.7100 6.9356 1.0000
71.7200 6.0615 1.0000
71.7300 3.6424 1.0000
71.7400 7.0542 1.0000
71.7500 10.8449 1.0000
71.7600 6.9580 1.0000
71.7700 4.0538 1.0000
71.7800 8.4790 1.0000
71.7900 8.8079 1.0000
71.8000 6.0006 1.0000
71.8100 4.1623 1.0000
71.8200 5.9681 1.0000
71.8300 3.8944 1.0000
71.8400 4.3835 1.0000
71.8500 13.5436 1.0000
71.8600 11.1091 1.0000
71.8700 3.9965 1.0000
71.8800 4.3923 1.0000
71.8900 5.0843 1.0000
71.9000 3.8599 1.0000
71.9100 1.3714 1.0000
71.9200 4.8435 1.0000
71.9300 11.0618 1.0000
71.9400 5.4249 1.0000
71.9500 4.0201 1.0000
71.9600 3.0024 1.0000
71.9700 2.0274 1.0000
71.9800 5.5024 1.0000
71.9900 4.9760 1.0000
72.0000 7.1746 1.0000
72.0100 2.1105 1.0000
72.0200 2.9705 1.0000
72.0300 4.0430 1.0000
72.0400 4.0565 1.0000
72.0500 7.9452 1.0000
72.0600 7.4571 1.0000
72.0700 11.1642 1.0000
72.0800 2.6488 1.0000
72.0900 5.4774 1.0000
72.1000 3.1238 1.0000
72.1100 3.8715 1.0000
72.1200 2.9623 1.0000
72.1300 5.0333 1.0000
72.1400 4.0704 1.0000
72.1500 5.3690 1.0000
72.1600 6.9636 1.0000
72.1700 4.6501 1.0000
72.1800 4.0738 1.0000
72.1900 9.6187 1.0000
72.2000 2.0820 1.0000
72.2100 6.1184 1.0000
72.2200 5.3677 1.0000
72.2300 8.2792 1.0000
72.2400 8.3277 1.0000
72.2500 6.6715 1.0000
72.2600 5.9853 1.0000
72.2700 5.7667 1.0000
72.2800 5.8263 1.0000
72.2900 6.7360 1.0000
72.3000 2.0007 1.0000
72.3100 6.0916 1.0000
72.3200 7.0303 1.0000
72.3300 4.3657 1.0000
72.3400 4.3248 1.0000
72.3500 4.4173 1.0000
72.3600 6.0012 1.0000
72.3700 11.4858 1.0000
72.3800 5.9811 1.0000
72.3900 3.1492 1.0000
72.4000 5.0170 1.0000
72.4100 5.0779 1.0000
72.4200 7.3586 1.0000
72.4300 3.0212 1.0000
72.4400 5.3546 1.0000
72.4500 5.3608 1.0000
72.4600 4.9747 1.0000
72.4700 2.9913 1.0000
72.4800 5.0623 1.0000
72.4900 0.3325 1.0000
72.5000 1.9877 1.0000
72.5100 3.0368 1.0000
72.5200 2.0016 1.0000
72.5300 0.3337 1.0000
72.5400 3.0558 1.0000
72.5500 5.8478 1.0000
72.5600 4.5385 1.0000
72.5700 1.0385 1.0000
72.5800 3.0833 1.0000
72.5900 3.1048 1.0000
72.6000 5.0953 1.0000
72.6100 3.9850 1.0000
72.6200 2.6218 1.0000
72.6300 8.0566 1.0000
72.6400 3.0501 1.0000
72.6500 0.9896 1.0000
72.6600 1.6580 1.0000
72.6700 1.0152 1.0000
72.6800 1.3392 1.0000
72.6900 3.0913 1.0000
72.7000 4.0845 1.0000
72.7100 2.3030 1.0000
72.7200 3.0910 1.0000
72.7300 3.9472 1.0000
72.7400 4.0391 1.0000
72.7500 2.3543 1.0000
72.7600 3.0351 1.0000
72.7700 2.9994 1.0000
72.7800 5.0501 1.0000
72.7900 2.9488 1.0000
72.8000 7.0594 1.0000
72.8100 4.1261 1.0000
72.8200 2.3161 1.0000
72.8300 6.0560 1.0000
72.8400 8.0290 1.0000
72.8500 1.0207 1.0000
72.8600 4.0575 1.0000
72.8700 3.0730 1.0000
72.8800 5.3162 1.0000
72.8900 1.9982 1.0000
72.9000 8.9847 1.0000
72.9100 2.9448 1.0000
72.9200 6.0985 1.0000
72.9300 5.3275 1.0000
72.9400 10.6204 1.0000
72.9500 3.9016 1.0000
72.9600 3.0901 1.0000
72.9700 4.2861 1.0000
72.9800 2.9535 1.0000
72.9900 4.8939 1.0000
73.0000 7.1484 1.0000
73.0100 5.9452 1.0000
73.0200 8.4700 1.0000
73.0300 0.9707 1.0000
73.0400 5.1026 1.0000
73.0500 2.0419 1.0000
73.0600 5.3758 1.0000
73.0700 8.0074 1.0000
73.0800 2.6813 1.0000
73.0900 5.1560 1.0000
73.1000 6.1333 1.0000
73.1100 3.0567 1.0000
73.1200 2.9387 1.0000
73.1300 3.0023 1.0000
73.1400 4.8909 1.0000
73.1500 6.1078 1.0000
73.1600 0.9676 1.0000
73.1700 1.3054 1.0000
73.1800 4.9929 1.0000
73.1900 4.0060 1.0000
73.2000 3.2952 1.0000
73.2100 4.0001 1.0000
73.2200 3.0020 1.0000
73.2300 2.6518 1.0000
73.2400 4.0458 1.0000
73.2500 1.3855 1.0000
73.2600 2.2904 1.0000
73.2700 3.8846 1.0000
73.2800 2.8523 1.0000
73.2900 2.0347 1.0000
73.3000 2.9502 1.0000
73.3100 1.0319 1.0000
73.3200 5.8091 1.0000
73.3300 1.2568 1.0000
73.3400 3.0094 1.0000
73.3500 2.9861 1.0000
73.3600 3.9698 1.0000
73.3700 3.9597 1.0000
73.3800 6.1384 1.0000
73.3900 3.0527 1.0000
73.4000 6.6575 1.0000
73.4100 3.0675 1.0000
73.4200 5.1428 1.0000
73.4300 0.0000 1.0000
73.4400 4.3986 1.0000
73.4500 5.4357 1.0000
73.4600 0.9846 1.0000
73.4700 3.0069 1.0000
73.4800 3.3438 1.0000
73.4900 2.3482 1.0000
73.5000 6.0308 1.0000
73.5100 4.0390 1.0000
73.5200 3.0718 1.0000
73.5300 3.0237 1.0000
73.5400 2.0444 1.0000
73.5500 0.9558 1.0000
73.5600 2.1038 1.0000
73.5700 4.0703 1.0000
73.5800 6.6197 1.0000
73.5900 2.3600 1.0000
73.6000 6.4708 1.0000
73.6100 5.0300 1.0000
73.6200 2.0278 1.0000
73.6300 4.4740 1.0000
73.6400 5.9977 1.0000
73.6500 2.0578 1.0000
73.6600 0.0000 1.0000
73.6700 1.9915 1.0000
73.6800 2.9997 1.0000
73.6900 7.1556 1.0000
73.7000 2.0505 1.0000
73.7100 0.9681 1.0000
73.7200 2.3515 1.0000
73.7300 2.0113 1.0000
73.7400 2.0320 1.0000
73.7500 5.0722 1.0000
73.7600 0.9726 1.0000
73.7700 3.0132 1.0000
73.7800 2.3670 1.0000
73.7900 2.0342 1.0000
73.8000 2.3731 1.0000
73.8100 2.3526 1.0000
73.8200 3.0505 1.0000
73.8300 4.0508 1.0000
73.8400 4.9465 1.0000
73.8500 3.9449 1.0000
73.8600 4.0777 1.0000
73.8700 2.0431 1.0000
73.8800 3.0575 1.0000
73.8900 2.6816 1.0000
73.9000 3.0044 1.0000
73.9100 2.4568 1.0000
73.9200 1.0250 1.0000
73.9300 5.0852 1.0000
73.9400 6.2494 1.0000
73.9500 0.0000 1.0000
73.9600 0.0000 1.0000
73.9700 6.9754 1.0000
73.9800 2.3263 1.0000
73.9900 0.0000 1.0000
74.0000 4.0559 1.0000
74.0100 3.0694 1.0000
74.0200 0.0000 1.0000
74.0300 3.1409 1.0000
74.0400 5.0574 1.0000
74.0500 4.9474 1.0000
74.0600 3.3036 1.0000
74.0700 3.0414 1.0000
74.0800 1.6378 1.0000
74.0900 3.9090 1.0000
74.1000 4.0918 1.0000
74.1100 2.0224 1.0000
74.1200 3.9891 1.0000
74.1300 3.0317 1.0000
74.1400 2.3097 1.0000
74.1500 4.5431 1.0000
74.1600 2.0677 1.0000
74.1700 4.3988 1.0000
74.1800 4.0529 1.0000
74.1900 2.7828 1.0000
74.2000 2.0369 1.0000
74.2100 4.3365 1.0000
74.2200 0.3331 1.0000
74.2300 0.0000 1.0000
74.2400 3.0643 1.0000
74.2500 3.0036 1.0000
74.2600 4.9390 1.0000
74.2700 5.9547 1.0000
74.2800 4.1387 1.0000
74.2900 3.0312 1.0000
74.3000 7.0752 1.0000
74.3100 0.9787 1.0000
74.3200 4.3382 1.0000
74.3300 1.0338 1.0000
74.3400 2.0340 1.0000
74.3500 0.9501 1.0000
74.3600 1.0041 1.0000
74.3700 1.9828 1.0000
74.3800 4.5303 1.0000
74.3900 4.0286 1.0000
74.4000 1.9986 1.0000
74.4100 2.0373 1.0000
74.4200 0.0000 1.0000
74.4300 0.3147 1.0000
74.4400 2.4511 1.0000
74.4500 0.9749 1.0000
74.4600 0.3236 1.0000
74.4700 1.0194 1.0000
74.4800 4.9880 1.0000
74.4900 2.3118 1.0000
74.5000 0.9933 1.0000
74.5100 3.0283 1.0000
74.5200 4.6480 1.0000
74.5300 3.1098 1.0000
74.5400 2.1261 1.0000
74.5500 2.0088 1.0000
74.5600 0.9681 1.0000
74.5700 1.0452 1.0000
74.5800 2.9667 1.0000
74.5900 3.0106 1.0000
74.6000 5.0294 1.0000
74.6100 2.1183 1.0000
74.6200 1.0108 1.0000
74.6300 3.0305 1.0000
74.6400 1.0401 1.0000
74.6500 0.0000 1.0000
74.6600 1.0243 1.0000
74.6700 1.6928 1.0000
74.6800 0.9810 1.0000
74.6900 0.5703 1.0000
74.7000 2.0102 1.0000
74.7100 0.9922 1.0000
74.7200 7.5911 1.0000
74.7300 4.9816 1.0000
74.7400 5.1331 1.0000
74.7500 4.0357 1.0000
74.7600 2.0714 1.0000
74.7700 5.9475 1.0000
74.7800 3.3187 1.0000
74.7900 1.9737 1.0000
74.8000 1.9608 1.0000
74.8100 1.3240 1.0000
74.8200 7.0513 1.0000
74.8300 1.0004 1.0000
74.8400 1.0203 1.0000
74.8500 0.9937 1.0000
74.8600 1.9200 1.0000
74.8700 0.9563 1.0000
74.8800 1.9683 1.0000
74.8900 3.0571 1.0000
74.9000 3.0011 1.0000
74.9100 1.0461 1.0000
74.9200 1.0671 1.0000
74.9300 3.9471 1.0000
74.9400 2.0267 1.0000
74.9500 1.0253 1.0000
74.9600 2.0064 1.0000
74.9700 3.0447 1.0000
74.9800 2.0335 1.0000
74.9900 2.0211 1.0000
75.0000 0.9949 1.0000
75.0100 1.3543 1.0000
75.0200 6.3919 1.0000
75.0300 4.1211 1.0000
75.0400 5.0747 1.0000
75.0500 3.0703 1.0000
75.0600 2.9737 1.0000
75.0700 4.8367 1.0000
75.0800 0.0000 1.0000
75.0900 3.3543 1.0000
75.1000 3.5182 1.0000
75.1100 0.0000 1.0000
75.1200 1.0361 1.0000
75.1300 1.0655 1.0000
75.1400 1.0338 1.0000
75.1500 1.9553 1.0000
75.1600 1.5105 1.0000
75.1700 2.0928 1.0000
75.1800 0.0000 1.0000
75.1900 3.0479 1.0000
75.2000 0.0000 1.0000
75.2100 4.2238 1.0000
75.2200 4.4247 1.0000
75.2300 2.0071 1.0000
75.2400 1.9842 1.0000
75.2500 2.0732 1.0000
75.2600 0.0000 1.0000
75.2700 2.0732 1.0000
75.2800 4.0061 1.0000
75.2900 4.0875 1.0000
75.3000 3.3224 1.0000
75.3100 2.9814 1.0000
75.3200 3.0540 1.0000
75.3300 5.6640 1.0000
75.3400 2.0488 1.0000
75.3500 2.3906 1.0000
75.3600 2.0218 1.0000
75.3700 0.0000 1.0000
75.3800 1.3422 1.0000
75.3900 5.0607 1.0000
75.4000 1.0063 1.0000
75.4100 0.0000 1.0000
75.4200 5.0189 1.0000
75.4300 0.9505 1.0000
75.4400 0.9963 1.0000
75.4500 1.0531 1.0000
75.4600 1.9318 1.0000
75.4700 1.0097 1.0000
75.4800 2.4880 1.0000
75.4900 1.0174 1.0000
75.5000 1.9970 1.0000
75.5100 0.0000 1.0000
75.5200 1.0024 1.0000
75.5300 0.0000 1.0000
75.5400 2.9829 1.0000
75.5500 0.0000 1.0000
75.5600 4.4538 1.0000
75.5700 0.9863 1.0000
75.5800 0.9987 1.0000
75.5900 2.0234 1.0000
75.6000 1.9969 1.0000
75.6100 3.0382 1.0000
75.6200 0.3341 1.0000
75.6300 0.0000 1.0000
75.6400 1.9783 1.0000
75.6500 2.9986 1.0000
75.6600 1.0461 1.0000
75.6700 0.3234 1.0000
75.6800 2.0485 1.0000
75.6900 2.0060 1.0000
75.7000 4.9848 1.0000
75.7100 1.0097 1.0000
75.7200 0.0000 1.0000
75.7300 4.0781 1.0000
75.7400 0.9720 1.0000
75.7500 5.0628 1.0000
75.7600 0.0000 1.0000
75.7700 3.0004 1.0000
75.7800 1.9880 1.0000
75.7900 2.1121 1.0000
75.8000 2.0256 1.0000
75.8100 2.0513 1.0000
75.8200 2.4836 1.0000
75.8300 2.0247 1.0000
75.8400 3.2933 1.0000
75.8500 1.9708 1.0000
75.8600 1.9326 1.0000
75.8700 1.9632 1.0000
75.8800 0.0000 1.0000
75.8900 3.0388 1.0000
75.9000 2.9974 1.0000
75.9100 1.0080 1.0000
75.9200 2.0068 1.0000
75.9300 0.9886 1.0000
75.9400 2.0512 1.0000
75.9500 5.0653 1.0000
75.9600 2.0161 1.0000
75.9700 0.0000 1.0000
75.9800 0.0000 1.0000
75.9900 2.0489 1.0000
76.0000 0.9775 1.0000
76.0100 2.2790 1.0000
76.0200 1.9641 1.0000
76.0300 2.0300 1.0000
76.0400 3.0520 1.0000
76.0500 2.0005 1.0000
76.0600 3.0385 1.0000
76.0700 1.0211 1.0000
76.0800 1.0203 1.0000
76.0900 2.3193 1.0000
76.1000 0.9526 1.0000
76.1100 1.0326 1.0000
76.1200 1.3054 1.0000
76.1300 0.0000 1.0000
76.1400 3.3781 1.0000
76.1500 2.5088 1.0000
76.1600 0.0000 1.0000
76.1700 2.0573 1.0000
76.1800 0.0000 1.0000
76.1900 2.0273 1.0000
76.2000 1.9781 1.0000
76.2100 2.0516 1.0000
76.2200 2.0161 1.0000
76.2300 3.0340 1.0000
76.2400 3.0853 1.0000
76.2500 2.0472 1.0000
76.2600 0.9923 1.0000
76.2700 1.4433 1.0000
76.2800 1.0114 1.0000
76.2900 1.0050 1.0000
76.3000 1.0196 1.0000
76.3100 1.9385 1.0000
76.3200 1.0054 1.0000
76.3300 1.0387 1.0000
76.3400 0.0000 1.0000
76.3500 1.0098 1.0000
76.3600 4.3613 1.0000
76.3700 1.9494 1.0000
76.3800 2.4041 1.0000
76.3900 1.5352 1.0000
76.4000 0.9902 1.0000
76.4100 1.0342 1.0000
76.4200 1.0259 1.0000
76.4300 4.3199 1.0000
76.4400 1.3175 1.0000
76.4500 1.9674 1.0000
76.4600 2.3209 1.0000
76.4700 1.0292 1.0000
76.4800 0.0000 1.0000
76.4900 1.0052 1.0000
76.5000 0.9620 1.0000
76.5100 2.6932 1.0000
76.5200 0.0000 1.0000
76.5300 2.9612 1.0000
76.5400 3.0282 1.0000
76.5500 3.0660 1.0000
76.5600 3.0619 1.0000
76.5700 4.0778 1.0000
76.5800 0.0000 1.0000
76.5900 0.0000 1.0000
76.6000 0.9894 1.0000
76.6100 1.0060 1.0000
76.6200 1.9516 1.0000
76.6300 2.0141 1.0000
76.6400 1.9866 1.0000
76.6500 3.3313 1.0000
76.6600 0.0000 1.0000
76.6700 2.2864 1.0000
76.6800 3.0037 1.0000
76.6900 0.9770 1.0000
76.7000 0.9843 1.0000
76.7100 0.0000 1.0000
76.7200 1.9476 1.0000
76.7300 2.0159 1.0000
76.7400 3.0212 1.0000
76.7500 2.0379 1.0000
76.7600 1.0343 1.0000
76.7700 0.0000 1.0000
76.7800 2.0213 1.0000
76.7900 0.0000 1.0000
76.8000 0.0000 1.0000
76.8100 2.4209 1.0000
76.8200 0.0000 1.0000
76.8300 2.9672 1.0000
76.8400 2.3520 1.0000
76.8500 1.9826 1.0000
76.8600 1.0103 1.0000
76.8700 1.0721 1.0000
76.8800 0.0000 1.0000
76.8900 3.0032 1.0000
76.9000 5.9757 1.0000
76.9100 1.0350 1.0000
76.9200 5.1284 1.0000
76.9300 3.0395 1.0000
76.9400 4.0130 1.0000
76.9500 0.0000 1.0000
76.9600 0.9758 1.0000
76.9700 3.9235 1.0000
76.9800 1.0721 1.0000
76.9900 4.4889 1.0000
77.0000 2.0455 1.0000
77.0100 0.0000 1.0000
77.0200 0.0000 1.0000
77.0300 3.1196 1.0000
77.0400 0.9641 1.0000
77.0500 3.0012 1.0000
77.0600 0.9862 1.0000
77.0700 2.9377 1.0000
77.0800 2.0166 1.0000
77.0900 1.0069 1.0000
77.1000 1.0034 1.0000
77.1100 2.0549 1.0000
77.1200 0.0000 1.0000
77.1300 1.9915 1.0000
77.1400 4.1207 1.0000
77.1500 0.0000 1.0000
77.1600 1.9551 1.0000
77.1700 1.0396 1.0000
77.1800 1.0079 1.0000
77.1900 2.0725 1.0000
77.2000 0.9693 1.0000
77.2100 1.9607 1.0000
77.2200 2.0595 1.0000
77.2300 2.0244 1.0000
77.2400 2.0011 1.0000
77.2500 3.0023 1.0000
77.2600 1.4028 1.0000
77.2700 1.0174 1.0000
77.2800 1.0450 1.0000
77.2900 3.3995 1.0000
77.3000 1.0520 1.0000
77.3100 1.0075 1.0000
77.3200 2.0030 1.0000
77.3300 1.9959 1.0000
77.3400 1.0350 1.0000
77.3500 0.0000 1.0000
77.3600 2.0172 1.0000
77.3700 2.0225 1.0000
77.3800 2.3898 1.0000
77.3900 1.0083 1.0000
77.4000 0.9897 1.0000
77.4100 0.9859 1.0000
77.4200 0.9787 1.0000
77.4300 3.4243 1.0000
77.4400 0.0000 1.0000
77.4500 0.0000 1.0000
77.4600 1.0048 1.0000
77.4700 2.0455 1.0000
77.4800 3.9969 1.0000
77.4900 2.0137 1.0000
77.5000 6.2015 1.0000
77.5100 5.2495 1.0000
77.5200 2.0260 1.0000
77.5300 0.9971 1.0000
77.5400 2.0513 1.0000
77.5500 1.0502 1.0000
77.5600 4.0330 1.0000
77.5700 1.0462 1.0000
77.5800 0.0000 1.0000
77.5900 3.9804 1.0000
77.6000 2.3198 1.0000
77.6100 1.0172 1.0000
77.6200 1.6535 1.0000
77.6300 1.9807 1.0000
77.6400 1.0274 1.0000
77.6500 2.0025 1.0000
77.6600 2.0585 1.0000
77.6700 1.0080 1.0000
77.6800 1.0142 1.0000
77.6900 6.6217 1.0000
77.7000 1.0048 1.0000
77.7100 4.9647 1.0000
77.7200 1.3589 1.0000
77.7300 0.0000 1.0000
77.7400 1.9730 1.0000
77.7500 1.9556 1.0000
77.7600 1.0156 1.0000
77.7700 1.0138 1.0000
77.7800 2.0059 1.0000
77.7900 2.0037 1.0000
77.8000 1.0144 1.0000
77.8100 2.9935 1.0000
77.8200 1.2830 1.0000
77.8300 2.0713 1.0000
77.8400 4.4361 1.0000
77.8500 1.3513 1.0000
77.8600 1.9783 1.0000
77.8700 0.0000 1.0000
77.8800 0.9643 1.0000
77.8900 2.0193 1.0000
77.9000 3.1294 1.0000
77.9100 0.9729 1.0000
77.9200 4.0310 1.0000
77.9300 3.0795 1.0000
77.9400 0.0000 1.0000
77.9500 0.0000 1.0000
77.9600 2.0145 1.0000
77.9700 2.0227 1.0000
77.9800 0.9920 1.0000
77.9900 2.0043 1.0000
78.0000 1.0102 1.0000
78.0100 3.0482 1.0000
78.0200 1.9989 1.0000
78.0300 2.0127 1.0000
78.0400 1.9831 1.0000
78.0500 1.0002 1.0000
78.0600 0.0000 1.0000
78.0700 0.0000 1.0000
78.0800 2.0455 1.0000
78.0900 4.0164 1.0000
78.1000 0.0000 1.0000
78.1100 1.0043 1.0000
78.1200 3.4815 1.0000
78.1300 1.9747 1.0000
78.1400 1.9885 1.0000
78.1500 0.0000 1.0000
78.1600 3.9860 1.0000
78.1700 2.0294 1.0000
78.1800 0.9643 1.0000
78.1900 2.9747 1.0000
78.2000 1.1017 1.0000
78.2100 4.9380 1.0000
78.2200 0.0000 1.0000
78.2300 3.0042 1.0000
78.2400 1.0345 1.0000
78.2500 0.0000 1.0000
78.2600 0.9802 1.0000
78.2700 2.0181 1.0000
78.2800 0.0000 1.0000
78.2900 2.0406 1.0000
78.3000 0.9513 1.0000
78.3100 2.0456 1.0000
78.3200 0.9824 1.0000
78.3300 0.9942 1.0000
78.3400 2.0564 1.0000
78.3500 4.0171 1.0000
78.3600 3.0356 1.0000
78.3700 3.0339 1.0000
78.3800 3.0040 1.0000
78.3900 3.0943 1.0000
78.4000 0.0000 1.0000
78.4100 3.0224 1.0000
78.4200 2.3905 1.0000
78.4300 1.0132 1.0000
78.4400 3.0425 1.0000
78.4500 3.6842 1.0000
78.4600 0.0000 1.0000
78.4700 1.0384 1.0000
78.4800 0.0000 1.0000
78.4900 0.3261 1.0000
78.5000 0.9726 1.0000
78.5100 1.0197 1.0000
78.5200 0.0000 1.0000
78.5300 2.9841 1.0000
78.5400 1.3597 1.0000
78.5500 0.0000 1.0000
78.5600 3.0651 1.0000
78.5700 1.0095 1.0000
78.5800 0.9899 1.0000
78.5900 2.0207 1.0000
78.6000 1.0041 1.0000
78.6100 1.0015 1.0000
78.6200 0.0000 1.0000
78.6300 2.0791 1.0000
78.6400 1.0615 1.0000
78.6500 1.0359 1.0000
78.6600 2.9580 1.0000
78.6700 0.0000 1.0000
78.6800 1.9757 1.0000
78.6900 0.0000 1.0000
78.7000 1.9799 1.0000
78.7100 2.0366 1.0000
78.7200 2.0407 1.0000
78.7300 2.0426 1.0000
78.7400 3.6079 1.0000
78.7500 0.0000 1.0000
78.7600 3.9825 1.0000
78.7700 0.0000 1.0000
78.7800 1.0165 1.0000
78.7900 0.0000 1.0000
78.8000 2.0107 1.0000
78.8100 2.3332 1.0000
78.8200 5.0901 1.0000
78.8300 0.0000 1.0000
78.8400 1.9861 1.0000
78.8500 0.0000 1.0000
78.8600 1.9508 1.0000
78.8700 0.0000 1.0000
78.8800 1.9187 1.0000
78.8900 1.9757 1.0000
78.9000 0.9923 1.0000
78.9100 1.0185 1.0000
78.9200 0.9624 1.0000
78.9300 2.0554 1.0000
78.9400 0.0000 1.0000
78.9500 0.9988 1.0000
78.9600 5.9975 1.0000
78.9700 1.0289 1.0000
78.9800 2.0361 1.0000
78.9900 3.1319 1.0000
79.0000 3.9711 1.0000
79.0100 2.2559 1.0000
79.0200 0.0000 1.0000
79.0300 0.0000 1.0000
79.0400 1.9955 1.0000
79.0500 1.0432 1.0000
79.0600 0.0000 1.0000
79.0700 0.0000 1.0000
79.0800 2.0371 1.0000
79.0900 0.9695 1.0000
79.1000 3.9353 1.0000
79.1100 1.9507 1.0000
79.1200 1.3671 1.0000
79.1300 1.9916 1.0000
79.1400 0.0000 1.0000
79.1500 0.9745 1.0000
79.1600 2.0604 1.0000
79.1700 1.9952 1.0000
79.1800 2.0202 1.0000
79.1900 2.6321 1.0000
79.2000 1.9702 1.0000
79.2100 1.0203 1.0000
79.2200 0.0000 1.0000
79.2300 1.0076 1.0000
79.2400 1.0143 1.0000
79.2500 2.0771 1.0000
79.2600 3.1001 1.0000
79.2700 0.0000 1.0000
79.2800 0.3348 1.0000
79.2900 1.1568 1.0000
79.3000 2.0969 1.0000
79.3100 2.3022 1.0000
79.3200 2.0643 1.0000
79.3300 3.9955 1.0000
79.3400 3.0002 1.0000
79.3500 2.0948 1.0000
79.3600 2.0153 1.0000
79.3700 0.9956 1.0000
79.3800 3.0898 1.0000
79.3900 2.9668 1.0000
79.4000 3.0422 1.0000
79.4100 1.9897 1.0000
79.4200 1.0293 1.0000
79.4300 1.3652 1.0000
79.4400 1.0338 1.0000
79.4500 1.0319 1.0000
79.4600 1.5261 1.0000
79.4700 1.9785 1.0000
79.4800 2.0003 1.0000
79.4900 0.9920 1.0000
79.5000 0.9889 1.0000
79.5100 2.9643 1.0000
79.5200 2.3707 1.0000
79.5300 2.0175 1.0000
79.5400 1.3657 1.0000
79.5500 0.0000 1.0000
79.5600 1.9574 1.0000
79.5700 0.3337 1.0000
79.5800 0.0000 1.0000
79.5900 2.9998 1.0000
79.6000 0.0000 1.0000
79.6100 0.0000 1.0000
79.6200 0.0000 1.0000
79.6300 2.0568 1.0000
79.6400 1.9962 1.0000
79.6500 0.0000 1.0000
79.6600 2.0153 1.0000
79.6700 0.0000 1.0000
79.6800 0.0000 1.0000
79.6900 1.0703 1.0000
79.7000 1.0199 1.0000
79.7100 1.0133 1.0000
79.7200 0.3214 1.0000
79.7300 2.0586 1.0000
79.7400 3.3929 1.0000
79.7500 2.9785 1.0000
79.7600 1.0464 1.0000
79.7700 0.0000 1.0000
79.7800 0.0000 1.0000
79.7900 1.9811 1.0000
79.8000 3.0168 1.0000
79.8100 2.0003 1.0000
79.8200 0.9980 1.0000
79.8300 0.9716 1.0000
79.8400 3.9364 1.0000
79.8500 1.0174 1.0000
79.8600 1.0400 1.0000
79.8700 1.9784 1.0000
79.8800 1.0175 1.0000
79.8900 1.9883 1.0000
79.9000 2.0655 1.0000
79.9100 1.0074 1.0000
79.9200 1.0247 1.0000
79.9300 4.0367 1.0000
79.9400 0.0000 1.0000
79.9500 1.0093 1.0000
79.9600 0.9757 1.0000
79.9700 2.3233 1.0000
79.9800 3.0497 1.0000
79.9900 1.5352 1.0000
80.0000 1.0669 1.0000
*RAS_INT_END
*RAS_DATA_END
*DSC_DATA_END
